Fp1||F7,F7||T7,T7||P7,P7||O1,Fp2||F8,F8||T8,T8||P8,P8||O2,Fp1||F3,F3||C3,C3||P3,P3||O1,Fp2||F4,F4||C4,C4||P4,P4||O2,Fz||Cz,Cz||Pz
5.650413023230017,3.3663869349275988,-0.4289384118231796,-1.7250564881399513,4.3387586911286,4.2400608752393065,-0.2629782829058245,-2.4649702799113777,4.992962945313754,0.8605537996667145,0.5485377383571963,0.4607505748425078,4.149490067424935,-0.4249194319446121,1.5955980498558038,0.5307023181797152,-1.226766048006629,2.830108888024571
1.1348417655175282,19.83248304145424,2.5921697492934967,-14.99216587927723,-10.615486867150768,17.6900803559966,10.551392956193796,-7.1176899335676955,16.42200799324325,-6.944387623657757,0.5153432620938458,-1.4256349547065668,-0.027573066603340912,12.169416157926237,3.6718508381316615,-5.3053974180167245,2.035095731040558,10.55208031847616
4.822515273884962,15.595739122067368,0.8284126537040806,-9.509967860819078,-7.502668887164404,11.02317289277417,10.525683720214841,-4.153861375138787,11.249132326690578,-3.2259407163103564,0.5800245771253927,3.13348300131549,3.998983523780387,5.525347152308889,3.599577869101055,-3.2315821945378396,-2.027814615388162,6.848612231281622
0.7950968892723544,15.656555001579633,2.287739488954353,-9.106941650832379,-8.97950243158947,12.462432867183255,11.574121667125477,-5.487713895670561,17.795061301295068,-12.300949314148673,0.7425431302871486,3.395794611523229,4.803162186184862,8.158936892534522,1.4763990081566374,-4.869159879859875,-3.552080588056522,5.9777099116457455
-0.10752994167584795,16.499269927383786,1.1107005109602872,-1.380544416007909,-9.577274057117688,11.949119786242235,5.005151557394625,-1.7440887326711119,14.770387460956313,-4.872157863077852,-1.5362406376482083,7.7599071204119205,4.3380749730992,4.542607800208795,-0.3539378751242399,-2.893836344367462,-2.733032564398477,3.3494344994393432
-0.13161955061316455,16.854350680482202,0.7153314531477516,-0.5887959185003258,-6.17105664042308,13.682522447241428,2.733001612948611,-3.0793744438992903,16.82375088228021,-7.8931690084928015,-0.10392712835763884,8.022611919067609,3.7755713427007347,6.102318449555851,2.6007853846196545,-5.313582201039543,-1.6214976039603965,5.506829229796971
1.5039631684124544,12.424873578798946,-0.16790331685188126,-4.778530593908333,-2.374307588881223,6.9202946090948565,0.8513464675977953,-2.9504853125000663,11.845569991528885,-7.1060188715085,-1.796595849143582,6.039447565554372,5.850023943996127,-0.1504077527791338,1.9419652992954273,-5.194733315231229,-3.24487976475102,2.586436733206838
1.1857546015619551,13.074286715909297,-4.175747635690572,-7.01603766714081,-5.9997675031198145,11.3893041324022,-4.839112127337028,-7.021552425509542,14.289167669894292,-10.225734855248014,-5.637706715821798,4.642529915794473,1.6745337208278466,-2.0083505831633355,1.966504676200096,-8.103815737458145,-5.943011153360766,2.400850364274418
-0.4027686191618738,10.013409251985044,-4.472144392054409,-8.570856071808233,-3.8637631287345098,11.757289324238178,-5.353877139671594,-7.5775957556253895,18.197398239437774,-17.44769806104107,-8.013960232848722,3.8319002233907504,2.675010960968187,-1.7176355025435874,1.2094997645863206,-7.204821922832738,-8.1533811705853,1.5320231418043542
3.086018839463909,13.49631908802029,-0.27581621215659846,-9.833604618939741,-10.126788633690744,16.715791702466635,-0.692963243707583,-4.520938290156539,12.534912660803672,-6.310693506969862,-8.144130894503508,8.392828837034893,1.5270792651088416,-1.426730380667736,2.307672042893829,-1.0329193924508049,-5.579062027082027,3.8862383970824887
-2.9966719524037746,15.71041159646849,3.9209964574617056,-5.921383693767482,-10.335620418558278,17.670931899769577,-0.13387001698107492,-1.3672386856112897,23.96224871320187,-19.68653393537969,-2.512575951450147,8.95021358136339,0.6721356926165178,-2.2098680997362354,2.917198419447902,4.454736766264004,-6.228000705605841,4.873555893876089
-3.221046001280877,14.214257240699554,3.0401068722408877,-2.9866178636293004,-4.78335364935155,14.23207982549756,-2.7976916295968044,-2.413416805168316,2.478617294387947,5.9999051463739335,-7.330515598519124,9.898693405763158,6.457886378926487,-1.918576276714965,3.1356995170455466,-3.4373918779020034,-4.924348766983483,4.0056603294537
-5.49750815255851,10.082104501369832,-0.184052362882667,-1.6152400607182544,-7.923455729560381,11.672753410907223,-4.582816371551615,-4.143772588940099,10.682602815786886,-8.451867315907384,-6.679772918209869,7.234341343515599,4.137965086196932,-0.25987975630411453,-2.896325944482623,-5.959050664579928,-5.574427085360027,1.868471414128301
-3.771406264048789,8.294510828964425,0.30331465600971147,-2.3931827776552153,-8.330092757843495,13.117999390258145,-3.5361023382565673,-4.507471370375621,13.12441773209077,-8.353580059309431,-7.494081537413308,5.156480307876139,5.040621717196193,0.910726162530173,-2.5810660786130155,-6.6259488773547695,-8.471219615029142,1.7823254782870537
-4.781251911307862,8.558515065534797,-0.08768971177961288,-2.586014911304575,-11.569877365305153,9.290330581598052,-3.3685560539701576,-1.9419664787480386,15.175209030409748,-10.795400187092676,-8.21095100273304,4.934700690531977,0.5719267375541737,2.276847246839519,-2.6569412307166402,-7.781902070125231,-5.997432810482763,2.477644987395344
-1.6911304583095799,8.335027386208022,-2.235968854665945,-1.9007484401042054,-9.049049529246354,13.471196854693822,-10.525600246814854,-2.8926452344539113,12.147375632040514,-4.644407218718297,-6.681943693113596,1.6861549128921764,6.943016187938154,1.690014615607648,-5.0771421287851455,-12.551986830603836,-4.110198444470073,1.02467077217258
-1.0442372448339015,9.674871108182499,-2.723485471435042,-2.5834961738498015,-6.822509834084508,5.640757772443935,-5.475698228076861,-4.527408949791591,8.240169996149204,1.7984297685838315,-9.74313331643359,3.0281857697360843,6.282474409785863,0.32212236220427953,-7.204945329247565,-10.584510682272485,-5.055653592325981,-2.478966418276782
-0.8875437051817414,8.964719977345004,-4.479955250033992,-4.63424249704526,-6.843533286673123,9.041550863012613,-9.117617167950103,-6.846232712256838,18.590510682224057,-10.900839903744865,-8.898327579595259,0.1716353261711611,4.449716237876486,-0.5572778762095422,-4.841103127600871,-12.817167537953395,-4.24389293773768,-0.7089630637145805
-0.8305445128271867,6.69287218526847,-6.333468676773769,-3.463057616280701,-7.647373421179109,11.856984033957486,-12.173881957953279,-9.849090927403106,21.908978405058075,-12.175403145273766,-9.714047936753953,-3.953725943673107,3.397846572448,3.348755279738329,-7.653766467715835,-16.906197657067352,-5.092945265205247,-0.30607245602577393
-5.951567096673511,7.058619413681443,-6.330854205793103,-4.538758592430694,-5.425497366237153,9.49713705989532,-12.78900514895546,-10.313251902247217,17.02364760047685,-9.447306919504936,-12.87392797071482,-4.464973191503121,3.3221306947889193,5.3018383661064465,-9.783505128661877,-17.871081289795832,-3.0129040696636835,-4.0047382270488265
-4.9224377609975765,6.155660284508521,-6.913538492130432,-2.3924952229453194,-5.7445145888045275,8.114440237086459,-13.502096993500382,-11.852025089081991,9.403318315003435,0.6037541260041042,-11.248981159174537,-6.830902473428508,3.636571702188726,4.81368307500571,-8.593593801423655,-22.84085741008803,-2.203058853744955,-2.6251596306834175
-3.993375165369242,7.109050089891052,-5.054114644621191,-4.1532654282893375,-5.772468117540742,10.345644334870974,-14.313165885004906,-12.414570359153412,14.770852623599076,-0.2842742875758847,-12.847169780036714,-7.731113704406371,7.368508848631003,4.911679526099472,-11.701369350608505,-22.733379050965812,-2.565757943441384,-3.3940361570280686
-5.117656445967365,8.160956505275749,-5.830768113456877,-3.766271869070759,-1.2125340226610637,13.065692586317986,-19.128529198734967,-13.270410109158806,11.250881997744845,2.6348707045676893,-12.590317986442432,-7.849174639120946,11.002212605685731,8.525559877754024,-14.419292815994456,-25.654260411696825,1.9537730992547457,-7.385629534715074
-3.3148581452328676,6.67462694664157,-2.2121244910277715,-4.063571231996087,1.0014724348493935,15.200339915342362,-17.205842660277387,-15.786723852913822,11.83185052765048,3.696985291549548,-11.6503443320383,-6.794418408808825,12.779792610795944,11.553698774601285,-14.012979448632427,-27.111266099777843,1.6874131700152888,-6.982662462453586
-8.546189917384268,5.482141692601772,-3.7686251235410313,-0.06460068148722264,-0.5954295650523391,17.23786425441662,-14.892865888880591,-18.40095829606448,15.04885619409444,-6.2778119326106605,-10.027273500867533,-5.641044790459226,10.845700642755752,11.554652218734272,-11.849668972263585,-27.20207338481971,0.7367831483711367,-5.896155313640011
-8.897526411531375,6.829634010421194,-4.933761577714703,2.078220537281652,-2.5853327748174473,17.32275696023622,-11.603658325095894,-15.644249956776099,7.71806763699254,1.3241441465394903,-11.236807817113565,-2.7288374079941393,5.68817416541008,14.094910679398199,-8.905969518080468,-23.387599423192384,2.1292694009215527,-5.102711533749609
-8.27529488197277,7.299087684909111,-4.047334980562572,4.415723629269447,-3.4058258816304825,17.11518724651556,-10.463272911245372,-12.008824290887027,6.148290541346583,4.04152167442011,-10.396082933760873,-0.4015478303952059,6.779962699621427,12.63140462731918,-9.478851733940058,-18.69525143025807,2.056217117700935,-3.6257795401877084
-9.609343802542107,5.035009806233121,-1.304643490033896,3.2369333930073774,-7.842249486803866,12.025228198106683,-7.858377905073095,-8.5688853217794,10.24182982180514,-4.375825180064834,-9.067644321706757,0.5595955865982205,5.038845148731236,8.14071030812996,-7.122934190843383,-18.300905781576517,-0.6542688894756297,-3.516197449383335
-8.89582063815039,4.5296600556667075,-3.05342287551897,7.819354310917106,-5.250019988363934,14.06476799509117,-5.449158928023566,-8.547106860389338,-5.6853378984803165,10.154605626619613,-6.567908387713282,2.498411512455648,8.960993696281315,6.579948506933075,-6.623474902860044,-14.098985082047866,0.44322056526379017,-3.4067822087253483
-9.845832787543435,3.7322290275513206,-1.4810365841115103,4.686237642882031,-5.883308847160401,8.97576202681923,-5.579405192121737,-9.111382368337331,6.609672967143776,-5.590702311804137,-7.291492977287604,3.3641196206935953,3.70238073565265,6.484251561275554,-7.394555494125326,-14.390411183609787,-3.8311431057725307,-4.371793986913489
-9.627417446940653,3.521639044254192,-3.325851357185929,4.482296678293387,-4.761678671115482,7.109915542293255,-7.272542169466585,-6.941316182870455,8.84498997529445,-11.181491336800907,-8.992288552418998,6.379456832313766,4.790535995653341,2.873072979324657,-7.678364017126599,-11.850866439016153,-3.7115862492189247,-4.848733669589088
-13.807175777241516,2.5306839513102624,-2.1424390472421315,1.8363755255110692,-5.498571745988265,6.221084697916895,-7.110551270156068,-5.845527286672598,-4.155285621950512,0.4135503916909382,-11.670312540377566,3.829492422942295,1.6783727907987709,5.414527119900317,-10.01402839440781,-9.312437121195615,-4.764599754167831,-6.302491771089737
-8.029528191876267,0.17341908507633264,-2.2277229687257694,-0.8100623066573389,-3.7971518900044234,6.504568581685787,-10.855240936899222,-6.019297933343049,15.656415647762477,-18.560256158349233,-9.270801419862133,1.2807475482335344,3.838641418523083,3.1709450178123335,-10.006976298185553,-11.169732316713885,-6.404236216953307,-4.92444050729974
-12.6073910248389,2.602283445235039,-6.218444917740701,-2.9687079344591547,-6.6888792004513,2.0032281255091497,-12.647148015079393,-5.3141243115413275,2.7517113770849866,-10.19191380733319,-12.243148693010596,0.4910906914230497,0.5289402745257927,2.2947620939652214,-13.80967063261833,-11.66095513743749,-7.263285644963531,-10.089746667642965
-10.353106500858512,-5.319671700533891,-3.9581828141793847,-1.3191778436383927,-8.216732699460954,1.1156115803104498,-11.216722637289656,-7.636282240683219,-4.0016566727850655,-6.5132026284515945,-10.821594595317471,0.3863150373122668,-0.5358189990128954,0.7351634767851416,-13.707174498600974,-12.446295976295385,-8.51363861863631,-10.177162553506275
-15.231833988199707,-2.10774288944482,-4.040800785282577,-0.060734355433112786,-7.013603500556927,1.0096266466563666,-12.521087230762298,-5.856722691728375,14.63484751103831,-22.6611122042509,-12.037509612719553,-1.3773377124593256,-1.8947870605591302,1.9101676397650782,-13.019874931094641,-11.377292424502055,-5.956009338824141,-8.80004755830829
-17.38024223816148,-5.047349826119339,-3.9271807027515866,1.783220579943253,-11.380497238811751,-0.4632151805949203,-12.165643318519152,-7.690372970417735,4.5587971772937115,-17.619430061835082,-10.129099226398862,-1.3818200761796606,-4.036301557829054,-2.7741090647778037,-13.310318945560898,-11.578999140174073,-8.770221733590386,-9.864733916630433
-16.603114193139255,-5.349295906148775,-4.105594523428688,4.50568096323402,-10.965789375146503,-2.7169860213035015,-6.146422963363914,-7.180076644587544,-5.225497425443377,-8.087666648691304,-8.905026413909189,0.6658668285310373,-3.1517590508103925,0.45207214208204594,-11.453481341283299,-12.856106754386838,-6.116262332463416,-9.953222965784448
-19.345956985908945,-2.3299772411964828,-0.4744005799135751,1.7589145859868822,-8.015701987218845,-1.0641331999231571,-7.549562362846739,-6.083638683922339,3.7392382206555856,-15.257586934207215,-8.169985781592683,-0.7030857259172332,1.0517658305128599,0.16275303725566959,-12.429928669913709,-11.497626431761677,-7.6622424274204075,-9.553825256268055
-18.382191937867162,-4.192644557500396,2.7671346988717715,-0.40227765370395685,-9.756999987134076,-3.0243218006314194,-5.1444200638425235,-2.643185394831801,-1.1647191915797528,-11.101453313792744,-10.951376348806924,3.007569403951047,-0.41028622917169866,-1.1029677897244947,-10.184902181393973,-8.870771046144199,-6.572114565215703,-11.889267666700484
-16.446327623554282,-3.124679438757881,5.033081061859283,1.244830776285252,-13.064725870346333,-0.6872941602778582,-4.009196895613406,-0.5696765654697682,4.086396642558606,-11.537509684833827,-10.1201911649423,4.278208983022122,-1.4831818834916008,0.2682433838376639,-10.870859992802872,-6.245094999243872,-4.21308080902701,-13.053261648578562
-13.831426827846974,-2.544103803991728,2.1241716427101753,3.7705288669366306,-6.903643171990124,-2.0610044055959715,-4.241548656319414,2.871338777863423,-2.5781009225556435,-3.674965029442138,-7.434276654597332,3.206512484376381,3.985470686586657,1.2489939616408012,-10.288539134612872,-5.280782969648758,-3.9054973775576958,-10.409068879306659
-15.811094755166314,-3.8181272285487236,3.4155652017848652,5.221683088097186,-9.145204454272921,-0.993034443473503,-5.743815417821916,3.3829541775912304,12.14304058547225,-20.815137829799337,-8.557787890679712,6.237911441147989,2.2258850964739954,0.6673884392496192,-10.391113654906329,-5.001260018785251,-4.672779285448116,-11.183382397964664
-16.03766316813403,0.5728948850361322,5.196283046424812,2.4732670957185556,-9.340115542316433,-0.12016284698144908,-6.758155462671796,4.383224451768665,-13.958195693044926,4.523442849822816,-4.213244769811166,5.85277947205399,2.027213770688682,3.4063112489046747,-8.541843227178857,-8.72689119260515,-2.120320014929339,-9.419099938612362
-13.534637137411755,0.08192504751942042,2.876426527248916,2.0683708782092936,-8.46503571994039,-3.0557455979686523,-9.33537877204781,11.438674452502159,4.666334800820807,-9.203461905260266,-7.9750774701004765,4.004289890082188,2.21752052929898,1.946113892305132,-7.670478150103275,-5.9106419089439655,-3.279468028271221,-10.975705414371658
-13.477956931824526,-0.3104936909193823,-0.12596862949147303,1.174941421044321,-11.207616219932286,-5.502861688414466,-7.71367599066869,14.881221268435318,-6.496258808123461,-0.3738423596568623,-6.757152226391675,0.8877755629584942,0.3553195134384506,1.1696809552348726,-7.093431801914103,-3.9745012973265688,-0.923541123412229,-9.017176153452755
-10.496524426880724,2.716000013035641,-2.4436795757684506,1.3555240586831265,-12.489732048123876,-2.2856703647959957,-5.604038474319364,14.12495146799592,-0.5702956843321383,-5.609373747494131,-2.610284136812936,-0.07872636231239127,-2.7781687147089107,4.397373287494682,-4.955224173235716,-2.9184698187794016,1.822423038239907,-5.008397042126776
-15.137450657742319,2.7159933824611233,0.024932905956458917,2.7077980590630233,-17.19434545683629,-2.095729844003401,0.704530709598437,12.587918563027532,-26.97062598695189,13.664730216926515,0.9498464281869357,2.6673230315568426,-7.573615424309462,2.058730167066189,1.7715181018918233,-2.254258872847098,1.6380718929943017,-0.12127940768749035
-10.701334656072502,2.3262433853276527,-1.9976027391236009,7.477913001966843,-13.895573815385982,-3.5658509349787035,5.254912211774949,14.8600684983521,-5.61793560575444,-6.126738750803401,4.606842724331164,4.243050624306521,-7.292675750364795,4.407812267434603,5.567132897037078,-0.028713454328121557,5.0664851957778305,2.519110941513361
-9.688437231285665,-0.7970378268042531,-0.8939694141991905,8.536875436392785,-12.35926179410565,-4.9382132688199185,6.093953973612928,14.788995311396345,-7.607091259027872,-7.36573180542897,3.6731330697991336,8.457120958744238,-7.59953666845362,2.1671324030503683,6.040973525534461,2.976904961970149,2.146585169440356,3.108071665717235
-8.680805010057846,-3.724120185104,0.7967445913738647,9.20507012337259,-12.390162233830381,-2.8924723741495377,9.569411746515865,13.741938497764808,-19.363697999553956,3.5023239869158935,3.9105247177033586,9.547738814503628,-8.982523717913317,4.125885504891042,9.638435487229362,3.246918362112588,1.5699229420239185,6.430814497444294
-10.412919693848936,-3.915904612202219,0.6331082971231397,12.021619915982091,-14.085998837319561,-4.460003931834148,14.21642192296607,13.965056644492607,-27.899306299828556,11.828753010393747,2.682259979836788,11.71419721663793,-10.562752816983034,4.522263436897078,8.449226826389339,7.226738352021762,3.2388535556423497,6.920830982475902
-12.73637341161088,-2.934917128296384,-1.2872084847221659,9.955189144602114,-14.51710298430285,-1.7305490376161483,15.054442058138164,10.673150444598482,-18.56528397585659,0.42578002964360806,2.6250998174213986,8.511094248751673,-10.58241891499641,2.4773453071620875,10.578925284352493,7.00608880432091,3.8330271429005522,5.945312467473496
-9.303472891346015,-0.8788176445672375,0.9929279958139405,12.478600233843022,-13.097589421772229,-1.442509423582914,15.794468344927378,13.046076795763062,-1.4204059753676512,-13.714159515531577,8.035987428051008,10.387815756580988,-10.115790071128075,2.4833861929662984,13.976703913563771,7.956146259956007,6.8681361502959675,7.50820951806223
-10.075364882122773,-0.677340511257329,2.297668622638371,10.900335955397416,-10.70643658833458,-3.5959023278496876,16.827133537298945,11.122774864945303,-19.141131283907523,6.616523653034985,7.000681773158922,7.969225042360106,-10.139475205844981,2.782546089359084,12.880741900076217,8.123756702493637,7.9495965670778865,8.875088851057837
-6.4582229196799545,-0.4749907693498554,2.7246817373271677,8.247807915082472,-8.906224681634413,-0.7687562742533576,15.808653354732591,10.176790591657634,-10.496082169182866,-0.49718579463955415,7.038832702567992,7.993711224626882,-10.653504397510977,3.765455586897337,13.052832000948424,10.145679800192926,7.956342834829364,8.874041233326944
-7.143637954768016,-1.9319520452356684,2.371635152236797,8.72032062479376,-6.720430225029357,-0.6760490055850576,11.957767015345846,9.329231574536,-11.716304308773097,-2.730582318923079,7.369182730202935,9.094069674514632,-11.462590763609896,3.0883288911331146,11.856201534325084,10.408579697445692,6.4977592503302475,10.044151753552079
-5.686248626388274,-1.4348899213140687,-0.6169586712936103,7.532666537271301,-6.590548209683462,2.541668155662096,3.8096091830986856,10.240305923120737,-7.371897562145184,-4.575926774384735,3.499480797241091,8.242912857560654,-10.320633360500025,2.509005659412593,10.365072137852087,7.447590615461268,5.72233182468438,8.674410318605503
0.06236844956066534,-2.499484916957681,-1.2605460290412978,8.78649250276076,-4.70797581641442,0.19284118547645868,9.040231189419387,6.269313084144846,-7.130999686410822,1.4864236619597584,3.2423516329834197,7.491054397788608,-10.45036313882464,3.882983682944169,12.583397831500356,4.778391267035573,6.0207077124975115,8.573453005622524
0.8246836477876762,-4.149161395630771,-1.1216423912285185,10.43100780076644,-4.295465071800873,1.261967642299071,6.45790336659036,5.619528238248568,-5.915428328568516,1.100779664467563,5.523566124120928,5.275970201675473,-13.707301100872245,7.4055795927632655,10.796203983288907,4.549451700187715,10.127320294486372,8.56937131872064
-2.1297941384154733,-1.7940072102096072,-1.3721328709181446,11.88028788589163,-0.7631463456448682,1.256777601027871,4.949479563515014,4.970612448171493,-9.682324392962002,7.3532785306778194,2.432853838121755,6.480545690513611,-12.962454539232457,7.60796154329666,11.937177135862171,3.831039127174992,13.159299681567756,6.708995011420862
1.8435896174415127,-4.613851432320357,-0.7424596995000957,12.157777342222907,0.9083939046826561,3.30230556153894,6.1751403919741445,2.564749824620672,0.12326539682111415,2.9585020208214807,1.9781564569715897,3.5851319532347588,-9.485394753514267,7.224548342367852,13.076572223244371,2.13486387075168,12.968193169527915,7.484564855242462
1.318842746469219,-4.698418453731941,-1.8693753543571683,13.216653067324321,-1.7223270888880986,4.371149127928823,6.3262325298503645,0.2574600577031747,-7.456178501226589,10.377733779754763,2.889930803551022,2.1562159236324323,-8.940289679266868,7.329577728790277,10.796355618329386,0.046870958776068505,11.214200382619211,5.1342590760296885
-3.8993842321309273,-6.735280974587222,-3.580981106803275,13.787386665255848,-5.432640721429234,3.1937459990160098,7.453566559299641,0.0995775015108773,-1.0725359637501435,-2.323102153734377,-0.10533320797577428,3.072711677204148,-11.424814370976339,5.872240303430335,9.100482080872773,1.7663413251065174,12.09662265632118,1.5135598010307594
0.9351960103551349,-10.333809025203632,2.3259783832812753,16.11612854061938,-4.46077470050146,4.652972314465525,10.338401920030092,-1.8151864646071028,-7.288725289236099,10.55982332509944,1.0979651559797334,4.674430717220732,-8.34510329713237,4.512721373633317,10.918671364702544,1.6291236282209791,10.634934227891659,2.8725476373479886
-1.56052313867192,-9.732196733789038,2.3747394470828698,16.882538093009902,-3.8849634467049583,5.819085855585392,14.394789154093846,-5.291496211501796,-1.6903229203905146,2.9320652514565486,1.3239743743360286,5.3988409622436,-8.490366939008302,7.059677147177542,12.246943811100635,0.2211613322414694,11.712041573270959,3.4494013326916786
-3.671606515816725,-7.567203675709637,3.9872940876742216,17.160873241683717,-3.3146054927808315,4.055318518390572,19.329751475046287,-2.9073441856624864,-2.2463629949910864,1.7471699518626176,1.1586499825092353,9.249900198466822,-5.708179788503628,7.360674992584104,12.792314027989498,2.7183110829638997,11.323997312784405,3.927710666480129
-0.3198753854454548,-5.10838085112809,0.9135499512782783,11.189350343470165,-5.972433319718181,8.443831952380735,18.209585207321297,-3.4519085528713234,-0.1676573065203275,2.219919882674505,-0.6675491741021329,5.289930656140985,-5.760358872076919,7.954821844490601,13.72666287320481,1.307949441535854,11.033345766547047,3.0379108034263864
1.072660801643524,-5.480776102969594,-0.7917108149546335,9.026739942313718,-7.366215504768924,3.0664073119695274,21.971952553445224,-4.483728230200317,-5.219986708211763,5.619879072200606,2.8767440188494966,0.5502774432148811,-3.9593412463916806,6.888969325180462,11.33898435453182,-1.0801963028318102,9.57055731984671,2.537827046852079
2.556795934505635,-1.0670856340216281,0.9223258151687002,3.739366123131985,-5.640477181300753,-1.23695242510894,25.148014801424484,-5.709813296845493,1.1516141734797838,4.818047589256452,0.1702686510563396,0.011471825014345072,-0.2074759685566825,9.143669382661669,6.801159655368855,-3.1765811712598104,10.353674433591054,2.6227610591191928
3.6442251998949455,0.2224138994276138,-3.0265093016561826,-0.08283332454007564,-9.291461516098694,-0.16931179928662488,22.268932668482858,-5.958255062499852,-5.271977862779108,8.115350146904056,0.9788092294055328,-3.0648850403799983,-3.2939646521991897,4.757840543032982,9.488320313861127,-4.10229191405107,10.1600138103034,2.8044105305206193
4.627908242107377,1.903401668759431,-3.0677577542268177,-4.783619747922705,-4.451786770565379,-0.7620320894261199,18.022271280598805,-6.107958285193186,-7.986606755540948,14.925858818742807,-2.3149271720164957,-5.944392482442016,2.0157969685831842,7.40357531044734,5.6307136550850565,-8.349591798653876,12.798250037940058,0.3483453453137908
5.605491757225558,1.5344349307251457,-2.7170991404814435,-9.288733130529092,-10.750673669365202,-1.0619613171673725,12.993970122167443,-5.377647060839196,2.9688166105292666,0.639843329645613,1.129079704322809,-9.60364522752965,-2.442532153662378,4.971323703543972,5.775364517282352,-12.500467992319281,12.50659979295066,3.6531179895477144
10.971565535930207,0.5803807838493531,-1.290931081830511,-13.305174872464551,-6.996405165540258,-3.3152291189576752,11.38330452145727,-5.720463145554016,-9.222674515030423,15.844035050852781,-1.6776381954053528,-7.987881974902882,-1.6296595965695522,4.101822806918172,3.3791934534291683,-10.50014957232207,11.531215094348767,1.5857331567521975
11.839269236041574,3.826469730179973,-1.6213307135552981,-20.055624469683742,-3.931342856373508,-3.5178685046883533,8.600352671354388,-1.9605342189562598,4.365450636642088,-0.5952876098751361,0.10493993661757672,-9.886319180370698,0.45044956602688657,1.8653521803098618,2.9344459130957494,-6.059640568044457,8.602569998950036,1.861139632254862
11.333647077566315,5.315581098205714,2.0535050724872455,-20.45788556889682,-1.164863596183494,-2.7441136676672206,6.500603112538975,-1.2268641902838149,0.17784461631859827,4.936000191484336,-2.5076860870780715,-4.3613110413294365,3.3095107442402973,0.11742170956930664,0.6324597179581093,-2.694630513310148,7.919972728318815,-0.7941929818892373
10.235960043386942,6.317267231803298,0.2607710137195736,-21.054999607686064,4.525732576480394,-3.630721294030896,2.837918822476597,3.3165988795480192,8.195440008331968,-6.136881599790225,-0.9216229910847247,-5.37793673619872,8.021765037340238,-2.6068207735220508,0.28187672827605903,1.3527079924343015,5.577139825987028,-0.42315470187425325
11.768915149500007,4.2924288586899575,4.133444087421685,-21.456307806646002,-4.047319730445963,-10.279312777701952,10.405454308547842,5.029137778981207,-4.199440307373403,4.272614783128056,0.5662010243334112,-1.900895211086394,-1.233333644272343,-9.237092376881462,4.1288152942486605,7.449570306342009,1.9647291936148141,2.5836116236930784
12.514495617970425,1.0965652672226747,4.784663592720346,-18.732049444161095,2.120327495617918,-11.361585132337682,7.425523644969603,9.770225002790813,13.189291927568924,-15.30110876715646,-0.3879872311125965,2.1634791044898907,3.76731127640679,-16.355355885458625,5.337224290130169,15.205311330019317,0.012500808604221092,3.343207387391367
7.785136592883411,1.9055391710395129,8.562175320894594,-19.132290646090368,2.6182080594054007,-14.690150957738444,6.4959650397384,11.778060918429592,0.49745359244203247,-10.072027233544265,3.637813257751379,5.057320822116715,-0.8047772440919401,-19.371679938032088,6.153222805330712,20.225317436686485,-4.185826288028558,6.1525618535800755
8.909145155669858,-1.4838968476868593,9.215875596764343,-20.41087339811117,2.231555007426392,-16.846981215813983,7.030821417474431,12.029228894040292,-9.364283526606366,-2.5013861759652882,3.854418819014131,4.24150139023363,-2.840025994480918,-22.875959433434517,6.283829093906347,23.876780437195627,-9.360671912876638,5.347515102799816
7.29265196706808,-4.774799193960593,5.280889005566599,-17.782537676007056,0.5697434285281311,-21.543060338397993,4.147194804137059,12.476888614052331,0.10825380642519722,-19.249712089695524,2.4103128369175533,6.747349549060888,-8.588515015557505,-28.918986668600862,7.09624342759655,26.062024764941874,-11.605695942258698,3.7601309304197477
4.3028797647454,-6.111667493615035,5.448744084267318,-15.93482346880884,-0.31640583118379695,-26.33693353327731,2.532645460323441,14.390594482951776,-13.566034404790779,-12.952962538287055,4.188395565327314,10.03573426438152,-14.339232949803769,-33.88740361307699,7.516223038331658,30.980314103424835,-17.073304489778323,5.589681829917981
2.3812890275681298,-6.178102326216572,6.3990662953006305,-16.625537771348824,4.358347036515321,-32.986427207753124,2.2848195959886084,16.79377177182507,-3.413756360132244,-26.385187313468954,4.598766596179299,11.17689230276841,-12.767830141220362,-38.07416040680934,6.664841131730185,34.627660612938094,-23.029048280764407,6.1485862928049615
-0.9135441545392897,-7.610858777821853,6.764634853143584,-13.799867571428857,3.0704014596342013,-35.14377368480878,3.4037054526776904,18.319213672650953,-9.376907137301192,-26.147396968153217,4.2273858668704865,15.737282587981513,-14.323663718325935,-40.40499736308492,4.737406579586031,39.64080140204266,-25.468926347273197,3.2883644204653
-3.921415968523135,-10.800563609793072,6.838409491968931,-14.000847536619077,0.40968619715797594,-33.98084960481691,2.0806392148400716,18.478631914968105,-13.779413271339823,-26.98586600661612,3.074266979462795,15.806594675571525,-19.98328809050305,-42.442412291920014,6.812115818010449,42.60169228662669,-29.56876419088809,3.063786868905346
-1.1734680788886829,-13.012795593828608,5.839113731189535,-10.587716618794715,-2.5495464433121295,-37.603229470925484,7.788409571358698,16.783737103044906,-9.199262137912962,-32.904515579059854,2.1160010311795565,21.052910125516107,-24.37550263054859,-39.596463873344035,4.978686436154804,43.41265082796967,-31.91050505012876,2.5451126020502595
-1.263554053439318,-16.68899342190179,7.966014754917189,-11.568373998061777,-4.635384234489692,-33.0224142227555,6.171316500716982,17.433810244764643,-9.796799798214039,-35.70004738347157,1.6455750211448685,22.29636544210082,-24.375232808563645,-37.82424521554661,2.4598190259449133,45.686987286468586,-33.08005835663738,-0.9044257764554038
-7.316691316196277,-16.848607228826435,7.945577863714934,-9.325479646933736,-6.726725326501577,-35.66830548796619,8.557645560258681,19.35461326356082,-13.521185556283474,-38.497459049348585,-0.2901520020616677,26.76359627949833,-26.72083392870522,-38.78590735697827,0.23208681967132527,50.7918824754316,-35.909460397245255,-1.327714092205301
-12.594462822388392,-17.30028345866475,7.340309071595467,-12.941166326124346,-3.3547126094522,-36.068079475294844,4.400348478647265,19.90938313367743,-27.4037466484378,-31.53092460050668,-2.909904203073888,26.348971916482682,-23.99028706585429,-43.36033792327695,-0.7279362492657802,52.9655007660432,-39.32443667665333,-1.8498075455853575
-9.381871393226145,-21.169064077961064,8.005686512118945,-11.673044784896753,-8.679692605737504,-37.737390164985385,3.269871457072017,21.734873703839682,-20.97523619328649,-39.50779844719294,-2.5026734889966855,28.76741438555756,-28.000146209262386,-44.80911933812739,-1.396830311011283,52.79375824865921,-43.617919883743255,-3.4472905762012864
-10.765015750476913,-24.548633477133563,6.7189847278145685,-13.529011130637173,-7.760003157255193,-37.74647904547549,-1.8651550801104761,20.43648045786776,-12.790590954545795,-51.88098895953923,-6.002145398345003,28.550049682043486,-25.664239741477243,-46.5502375579576,-4.509014040669044,49.788334515200624,-44.78590097030324,-5.827196504784154
-10.982048005706126,-29.196824703063225,5.921626084173811,-14.700374182679262,-8.60354893723299,-40.39225876509995,-4.656990218889851,19.822847998815735,-33.70962105286759,-32.712390262355825,-11.064520122816788,28.528910630811914,-25.674070252052566,-50.439153293984845,-6.939440889320851,49.2227145130221,-48.49248600629776,-11.919263560774777
-13.548602808148486,-32.0862412834754,1.316647772318119,-13.526912332179649,-9.354800782906032,-38.15505384544093,-5.984565680609332,17.745497755790765,-16.055474916825233,-53.78038209390191,-16.029602012465773,28.020350371753885,-22.951397160025003,-50.811679912255656,-9.86000402084392,47.87415854003068,-50.14771721625954,-15.375744126703221
-16.218505353600012,-27.552727534656732,3.45106238137805,-14.403183170590905,-18.705263405641414,-34.74582740287083,-2.1368992210817517,17.134152651020116,-25.356456645709212,-44.28304188878249,-12.108180377138368,27.024325234206636,-30.28934455759294,-45.616965868266824,-5.360425876233801,42.812898923592044,-46.52884409042885,-12.876279979425272
-14.304134542028331,-20.381505770748902,4.707541734343934,-9.80949933003397,-13.412358453719957,-31.336439846112285,3.565634336298755,15.352043460320543,-11.514104153873067,-49.728813954490036,-4.769074591639628,26.22439479158128,-27.96100734277106,-35.14794415450973,-2.7181902356640046,39.996021229804974,-40.17492173591572,-4.420875496536606
-11.321116648501643,-16.627348767534198,12.60570627907525,-9.902223774261776,-1.2886669275905653,-22.946312556320617,5.165901449524147,14.25465608696849,-24.62679490053801,-28.808410060951886,3.936916852144696,24.253305198168178,-19.18904766826293,-26.24061520610301,2.5589614393761613,38.056279487645185,-32.84374234260943,6.865417835387497
-8.636604867322603,-8.086999122817764,14.742996383107934,-7.942929821151821,0.5757468427308599,-14.555955082628001,2.077944591818741,14.134951716342595,-22.018051402803465,-23.709908330915944,9.419894177495081,26.384528128084856,-21.258840644585895,-21.434037834367686,6.2717498068944195,38.65381674039819,-27.07435909033439,16.00205205211666
-8.399011517956495,-0.22928298318208995,14.439747490537332,-10.669958359981223,4.192827041731913,-11.73182216780263,5.239419923167981,12.453816240791637,-22.145139726196515,-20.272869458240727,15.976811898958271,21.582691914940582,-18.935732355102267,-18.18906740250443,11.545227059530799,35.73381373604059,-24.03861593937305,19.766319105851974
-4.455838216395058,6.359860532101788,14.918636228004019,-8.317491665062851,13.664242824248102,-8.71206953533027,4.493912127421782,10.187813418520516,-20.4180975211877,-10.586948241310797,16.576326594046293,22.933886047143403,-13.489225471958488,-9.767275589839086,10.469121811301155,32.421278085433364,-17.29105234252459,21.77155336262114
-3.545405491620981,6.602236225674552,14.519451149227617,-10.748917285444794,12.583539806193876,-0.6137714945071018,-2.209401241880153,3.821250234994043,-11.758672036162453,-14.574254263705514,16.49196999920336,16.66832089854344,-13.024863052975604,-2.125739543666125,6.949750324253958,21.78246957726637,-9.468376895929476,18.69739025570815
-2.640257081328736,8.798759215080661,12.949188118354613,-9.17499395084477,18.724474512231957,-1.5972606965924143,-5.983675252427201,-0.10281976106320201,-23.510978589660354,7.414325415919663,11.81744616448782,14.2119033105561,-4.8470881568372235,5.2238750766203665,-1.6496386016436402,12.31357048408876,-1.351800535523008,15.133742803615036
-4.181767402727104,7.285287642213541,14.993044452861373,-10.822349363407389,19.098617155593036,-4.142850588882336,-6.047656874781325,-2.1703586649363125,-17.2954717804824,2.6436824906811403,12.025569414165089,9.900435204616995,-0.0888311641921753,5.250257146210743,-4.782000082715237,6.358325127770097,5.886835344191923,9.713402531353605
-3.677608564948903,6.065795736609811,14.49854956153169,-11.101024302722832,11.655206652566061,-7.957526588761057,-12.850732621667607,0.7436649977019734,-15.37806128101882,1.4854463163061489,11.745177438323426,7.9331499568982835,-4.609503296228404,2.7386825082068142,-10.162285437493328,3.6237186654359377,2.4818086208432817,5.854390910577033
-3.276176259180078,4.456685966310278,10.977380791899671,-11.573496858178624,7.722594104630998,-14.408454989519576,-10.084067589825993,1.5102194894930747,-13.55940769098771,3.4514010500513663,7.85123581185023,2.8411644699754355,-1.5142612112149685,-1.6271977828731288,-14.470120106273875,2.351870115223445,2.6912015522780237,0.3340037913160461
-10.887670109039767,0.7001253757810177,8.238155095175927,-8.528726881808804,3.68749814018917,-18.905679324433514,-8.19704701361495,-0.5543165162778596,-18.968468032599905,3.463417629404262,3.4688053373983085,1.5581285459424947,-0.17819263644094008,-6.968417008213255,-17.2172027131549,0.39426764375625467,0.46028665549485126,-7.921991955364735
-13.914161585828094,0.5579266721515737,6.476152104698029,-4.603427116234996,-5.625884701760369,-13.050590746688028,-9.728778475263807,-2.1295973805590265,-6.214170493203845,4.841933092503545,-7.652196377393265,-2.4590761470844953,-1.0895300010081215,-4.8863623872014585,-20.844962770611534,-3.713996145364419,2.5275005162575894,-14.12836428085261
-12.550883409869767,2.3699139388389057,7.156201174995379,2.35091912760981,-10.061090941325858,-3.093241015221583,-8.819803165866663,-3.3132986904776285,-8.304770562830203,18.915319500269092,-5.784892988768647,-5.499505117061911,-0.34190656539037434,6.181537008961641,-16.3688728464991,-14.758191409876744,10.162446286207164,-12.620960674995924
-16.465866401814544,4.280595361209084,7.055559267417578,4.814712374765261,-10.3993222683807,2.86082136093448,-9.86472421566631,-6.058593358661156,-1.4117177414687596,15.800382790246402,-2.452885136958793,-12.250779310208955,4.799152307248651,11.977298050722574,-18.33991950478808,-21.898349334868165,13.892375619067174,-10.235818535443629
-22.533974749645708,5.606371544322034,4.025717654090024,6.2060200995908055,-13.378900809559035,12.135971022462147,-14.914358181944678,-8.412344897050971,-5.3594702152799165,17.27487353442409,-0.8788656891717808,-17.732403081584252,6.325770534016737,18.26277406727985,-23.047090501089272,-26.11108696620959,15.084549146152234,-11.953477339791545
-27.337096768325814,6.737877729170849,6.172229528221983,3.3021834449154532,-8.941015691690916,11.157826322447114,-16.253746766443225,-10.667544988517562,-1.592993214791786,15.428589292170948,-5.8480514936978665,-19.11235064966943,13.027203948351985,16.83476116547545,-26.877029907808026,-27.689416330132097,15.789831408665492,-20.02005895947658
-27.847749106541972,4.550069963402498,4.022254103144285,6.357311635519668,-15.542914484271675,11.645360306998402,-18.179832836814686,-8.820244841733683,0.6102930950987187,12.214759258481216,-7.204025297321851,-18.539140460705894,6.250883934922054,16.7754749637923,-27.192957758846454,-26.731032995595974,11.02772929612551,-19.396264356983206
-26.311963784172058,5.683677718560219,5.974316322550869,7.558831859190699,-15.3131637678026,11.157173595807215,-14.637837908305919,-7.265061355115137,-1.1909887121393865,20.426621560876654,-7.290560726023773,-19.04021000655785,8.067519965838343,18.866222568779953,-25.459717722442548,-27.53291424749692,13.68911569421299,-20.922094708257767
-34.15559783384938,10.626992207037812,4.899359773988829,9.250576113921039,-18.99404634939179,17.017640615139918,-17.053718060210507,-10.005980452143778,12.144145359344243,5.884040996109832,-5.424041605634486,-21.98281448869731,7.441847976795145,18.61479241582826,-22.849178788760497,-32.243565850372036,12.055112439864835,-16.101317703168824
-35.948627231726164,14.204155043703004,6.656806851510774,8.014569513695303,-18.382241841459013,19.16805774082119,-11.853046955899408,-14.015630701713203,-0.6934610657794167,28.25597021259952,-6.29202761783584,-28.343577351779402,9.159158099589881,23.93150513462414,-21.50978589115204,-36.66373910121357,20.676772852054018,-19.87555771517909
-35.304284811212746,14.364354820991895,3.8246267015838127,9.319691259340733,-18.36056545709374,20.831173606385974,-10.266463297539332,-14.020512536764627,4.828189917591255,22.01413848453191,-6.57414390661547,-28.063796524784188,8.04365119017476,29.445227797057505,-21.34385448647819,-37.961392185665076,21.09683338892852,-19.256324481332697
-39.839768337114464,15.795163458849558,1.3833209240391167,3.4002127760260015,-18.050024196880734,21.811715447381275,-15.614327866692097,-14.219927025109087,1.560315575459736,19.58098783842355,-8.711822444722667,-31.690552147342792,11.12674576665411,27.636356202040922,-25.281088532653246,-39.55457707723978,22.495170198840647,-23.22811831036813
-33.63675784957935,14.199640009935013,-3.401570851047886,3.244658580830211,-17.450543215934353,21.328463477477253,-15.494104303267738,-15.102180907552434,8.936875768196725,13.729917111016686,-13.681629271714284,-28.579193717345774,11.181830360003474,23.778449030934752,-25.313523663788033,-36.36512067632287,17.938131466891097,-26.419750752452334
-27.046863205888375,8.015259446919142,-4.279997353416151,-0.9127006669122486,-17.538623605610496,12.350101876887813,-17.913722949850744,-12.85864011692179,12.602252742416269,7.488387078232909,-19.335082921616248,-24.9798586783175,10.064463337638625,18.164519062105708,-31.499876031468546,-32.68999116366443,12.796939728447565,-34.10472608070137
-26.80835567669331,8.179686650067957,-2.8145269301375997,-2.724067634246385,-8.450755882176825,9.720647873224078,-16.91605631888511,-9.442476975306189,-0.041331531227548624,13.844947156724329,-19.617392514079054,-18.35348670241633,16.368587072686303,12.747759425785691,-27.726586047270047,-26.478401754237467,7.364614061829654,-32.31797281986363
-25.401474356821133,7.661561460346972,-3.5951182327957945,1.3262800550795766,-16.35913530262049,8.361938886854928,-14.649568363543388,-5.830286090389176,18.27253995332664,-5.28685225780512,-16.872333027128313,-16.12210574257518,7.92595566567538,9.774335172496562,-21.903896845339595,-24.27344486242004,3.692011839131384,-27.504886259831682
-23.70502196990631,9.878901038507221,-0.469378812532387,0.3983764409355768,-15.482038052041444,2.8051804866040175,-7.403257640923371,-4.561185567574691,6.117219688389147,8.492385486641792,-12.076471302149658,-16.430257175871105,4.756466765809025,9.341939703960007,-15.69195487652506,-23.047752367067194,5.587828670122891,-22.399866665003607
-21.718879653533765,10.92539114045062,-0.3710536692293456,4.160380413027748,-6.405328890592219,10.726461693471492,-9.82577687291884,-7.197715736978514,7.438761969320538,6.256199557593122,-6.98763634959184,-13.711486946602815,12.231356750143156,15.454574599216997,-14.364241705181719,-26.02404945108245,5.825434389889181,-12.901271619988481
-12.118596213877845,16.660490624098514,1.4850407879459295,0.4051164473289526,-3.093981773491967,15.524003711055755,-11.663054074049015,-6.12258895396299,14.033987985032176,14.958192068797903,-3.265999713739963,-19.29412869459311,13.944185635610133,19.12776051075165,-10.889362414106428,-27.538204822587765,13.389382504805003,-11.997562399553711
-14.630912763365618,13.412109392520591,-3.202049210832368,2.316420790245953,-0.7626834063483354,12.90090190563134,-13.793998674494109,-9.929702008815207,1.0979031650759525,22.00057916761348,-2.5717332414692278,-22.63118088265244,14.191953983643998,18.11540061539506,-11.126742611798676,-32.76609417114918,13.631052164500453,-8.848710891028045
-5.231901233038862,15.047639128265025,-1.4438902234013966,-0.9456750942940331,4.690276404450767,15.552697268851801,-11.53102797047704,-10.318162194679932,0.4670022222722592,27.774055163340588,-0.41257148384260933,-20.402313324242513,14.92787617398734,22.866902708858774,-9.900482153026147,-29.5005132215552,15.04670563879482,-5.993798631310478
-6.2850586371448784,16.000580276947566,0.9976649910987776,-3.4240091891118913,5.55002231231132,14.00662256083029,-9.952332342669775,-5.920775878087312,14.192169069949504,7.766589290199245,0.281762393216626,-14.95134331158098,14.589487472389482,16.096874738087383,-6.038647177464673,-20.964178380506894,9.921418994540314,-4.5070403524943945
-4.118174514925418,16.368581256499986,6.075725093310404,-4.53259597747622,3.2815074966616677,15.489382827210388,-7.104743971502023,-5.038465201310316,5.261191450180938,13.34621347153658,3.319928897156081,-8.133797961472162,11.126033927329003,14.504816522973595,-3.7404785312086375,-15.262690767911902,5.481901155469714,-0.6774208658392133
-4.981216151019147,17.42118240765445,5.098705060967516,1.8810404100841143,2.2794182309955673,18.633800648185794,-5.429692455041291,-4.546196192627405,4.436328588373819,14.043771940553764,5.47923081716276,-4.5396196184128375,6.197755151474466,13.207865575409562,2.4629001531497714,-10.931190648397227,6.0251274150004885,1.6864296306487372
-3.698194113090924,11.443411019805662,2.656472566688958,7.4183716844090615,11.52835540301032,17.873414393041024,-5.415451723688555,-7.17839875268968,4.588636307146611,8.980402687180916,8.517515229435588,-4.266493065961853,13.574449931960158,12.791991079577333,6.516752783621197,-16.07527447536009,6.9612172481818755,4.342372679915236
0.5122837223811239,15.037070722135839,1.0927673404185256,9.34501756346804,8.176497381574055,20.532582696274073,-4.620562664195128,-7.5639097977530225,13.921435347595338,5.187519098566293,13.216051317632884,-6.337866415404514,8.548766799279841,18.628389676153503,7.053915608579773,-17.70646446798606,10.633988176332922,10.51313642889943
5.013589447341754,13.84646057214729,0.3098857345005106,10.004799288972826,12.439086643244366,19.091686213793277,-2.849693373788037,-8.046527146537443,5.774232884916149,22.977985620571598,9.125467628497653,-8.70295109103853,14.558619493538723,23.295092205662634,3.6838030285071497,-20.90296239086767,13.234818552146312,8.87044619507054
2.090893415167983,12.754453497323318,-2.0360037500631547,10.081355515459657,1.3666451713427605,11.49993753145634,-3.130216589458424,-5.989503287960332,-4.227662813388273,27.68335735703422,7.37875273054016,-7.943748596315743,5.138815830404506,17.51463057577221,1.387005840177597,-20.29358942084372,13.494186397550356,3.320635159174234
1.6077598282883656,8.538329069564112,-1.3550328442753239,4.496517184897023,7.772265160201062,8.9880003398344,-8.78247751266474,-6.2757361062464865,8.330252694906058,11.393408525245718,5.43681099803806,-11.872898979734947,12.61412244335766,18.279466896890476,-7.356075269770456,-21.835462189221623,11.80274971018385,-4.280775687468733
-0.6349611909881361,-2.5129227478356864,-5.752839232771528,6.531769303375261,3.432951754427438,2.083095833113063,-10.333656660531673,-10.174786494005318,-3.525324676055031,12.975969147437404,-0.6066621553585274,-11.212936184264999,12.374842689145382,11.819873220847745,-14.342142885095981,-24.844968591760242,3.8635933246543193,-9.148532842713697
1.5153013105327418,-3.602187451883756,-6.440271245765198,6.90965778712402,-2.373717204249929,6.019851843654037,-8.369681089312053,-14.463958681468876,1.6125552788359903,10.165122164454536,-1.0835460577383995,-12.311630985567096,11.354729185842876,7.803977301757501,-10.87961038226591,-27.466601236576366,1.0050388342337397,-8.841168307448507
-2.488355024930515,-4.8858876875725255,-6.933052115222036,5.727870453673745,-4.081157567845841,8.298096359345863,-8.16404871928292,-15.82289853502671,5.970251658097242,-1.140711600825636,-0.09546203923740382,-13.313502392109969,8.284283550943934,3.3997142121779254,-5.171679737128194,-26.282326488666897,-1.6557787195765883,-4.042261553630997
-0.04794801275387783,0.08136887414307115,-9.575011791362117,4.744275518046655,-7.646398145020097,12.238209598875187,-5.517456048989765,-16.69305796013337,-1.4874930000337634,7.379256590084955,2.8458816930102495,-13.534960695013742,3.26121491198415,3.099347581223906,1.3168315247599018,-25.29609657309823,-2.946946119356314,-1.0018830759725343
5.320977415000314,2.8033394911915304,-7.823125428702459,4.544847097230398,-0.4714967902928331,16.66831403766045,-2.968983054509068,-18.44165308903956,7.364816961467316,6.623062438645849,5.494359523505089,-14.636200348926025,4.488823955330271,12.371716477319076,4.289031728744336,-26.363391057435585,2.2097577216265107,4.2839594609821745
2.7785456988252264,4.354239144470183,-10.564290639258148,5.324927101038691,-4.529351092286463,16.021932124779205,-4.3272597794716905,-17.064723715477864,-3.6061165351614903,13.876166353310982,3.748348068894837,-12.124976581997382,1.4201243689115914,10.708699123035096,2.670734872838336,-24.69896082710147,2.583709527080487,2.5378057989296856
1.602375507766201,4.929362362142397,-11.255481569106616,4.447781699528642,0.19996984154929454,13.814754401540693,-6.857847163020288,-16.566243698115915,4.467552089561593,6.091380183985216,3.1743394941567757,-14.009233767403366,5.481120462240549,13.540220137776775,-1.8778281399958985,-26.552879077926093,4.034388761515844,0.6933805570674689
5.9918826610846985,5.895895782136035,-14.681969658889075,4.354878246210502,1.1187118645220488,13.953100611646764,-6.654412787579056,-17.043876671807425,-6.01234292854332,20.37868180441703,2.3074679294312084,-15.113119774794491,8.370952110134432,10.709874246915783,-3.008854765788609,-24.698448574336624,5.878204493181735,-2.4211841128922176
9.404131078383713,0.22245963891838194,-17.523433320913167,6.315789882175663,1.547332584913855,9.893910531554017,-6.744323351611215,-16.935104082741134,8.900244802070961,4.784188161715662,-1.5866838804077459,-13.678801804847247,6.3786720312008,7.5888348792431515,-1.894188403390876,-24.311502824793898,4.111200795754158,-4.559735240419069
5.296184073939891,-2.0322220389618506,-13.041529433212947,6.619543644757489,3.5367390465946276,9.84044091517416,-6.932239737683339,-13.896144865355467,4.7711059419433965,3.742203784174005,0.7693680651303203,-12.440701544759271,7.902891763576758,4.958359699818153,-1.6588272731288107,-18.653628831391558,1.1748307401601439,-2.8901735502390355
5.28944390276402,0.010746495797503641,-12.564596140524037,10.34436180233129,-1.4091976389778336,6.273050562203048,-1.7493045134535148,-8.122318626331591,8.651495983141581,4.850226489886466,-0.4878100997964929,-9.933956312898024,5.521667971668343,0.47465671568425094,0.7246679477915059,-11.728762851558637,2.244962248151098,-1.2211262830175231
5.2824158140407995,0.19890301466144944,-13.358256322214542,10.068274480614512,0.4793583393951497,5.734811054505926,1.4801760973926719,-6.7426439734441725,11.263990092031845,-0.38793825856457076,3.333317568711561,-12.018032415112918,3.6296428934121003,1.0714172787860807,4.1821113434051185,-7.931469997607685,1.7551099327763904,0.7404041689236838
7.326041725232379,1.559612198682787,-14.641286951768807,8.52571535309861,-2.0281387887811855,7.639777141997264,0.9983873149646847,-6.534418536386154,3.917108839196894,8.438204110965058,-0.2674434296717634,-9.317787195282502,1.933886246194617,-1.356961202288522,3.7330071718240934,-4.234325083788967,-0.3923800583556538,0.8459716207888839
6.1469319672036935,0.9678004590430858,-11.14020822729315,6.2049886235337635,0.7365214354460266,10.034793408513304,-0.8508603457407364,-6.423409732118852,15.517601671200502,-7.050813374165717,0.03820014720825404,-6.3254756217938395,0.5320977046285531,1.7833902896491818,5.627499519543962,-4.44594274757489,-0.7794848652469097,1.8300165539368338
0.9639517265892614,2.329750878220808,-12.034885141028166,6.817102455787131,4.281176936470194,12.724541955525051,-0.5518633259519987,-7.288539313881851,-6.767311578120497,10.76309887969095,-1.5115638513046572,-4.408303530735788,5.0884671193097315,7.269752266888852,1.6623865783028364,-4.8552897121926115,2.937581278819314,-0.018431792018551718
4.472733025380979,-4.706284117665691,-13.80967570617254,8.018283644552135,5.871504692616158,11.216762514590332,-1.3273020212916968,-11.961883402006116,-0.045990164217928786,2.8946867417049233,-3.940164391804987,-4.933475339626936,7.009153260640766,9.73093301787663,-2.302819300200797,-10.638185194260261,1.7743043136928502,-3.7227730950288835
7.005283977867528,-3.440858657346629,-11.679386541323469,5.023313986020379,6.679490965366261,7.366946125673796,-0.442734610686502,-9.896407314518914,21.32593301770333,-15.909712120759941,-1.6811175569969898,-6.826750574769124,8.735638507469567,10.338807487565386,-5.0961777761123095,-10.27097305294019,3.2503262730936995,-1.9586544198056508
4.167129138766871,-0.514727313347807,-9.159731394996264,5.351849025908449,4.6544162161391025,5.8626564976385325,-0.6325526997097102,-7.049234083863615,-1.148474695443138,8.940595922109548,2.042863037840413,-9.99046480821676,6.849939796730416,9.191013555881932,-1.248808493523776,-11.956858928736407,5.705459609591323,0.09808588370731552
9.239842390679183,7.001813347167201,-9.571107747113249,1.4842508090632345,6.046468390677111,8.266407867442588,-4.728805660225247,-8.303251268160063,12.90315925148635,6.448448659814867,2.7395122177223232,-13.936321329268946,5.844349978051397,10.29149679592959,0.9384269287322269,-15.793454372831008,9.823300513059934,1.7638649125145394
7.379566709957947,8.464040371571913,-10.862736577707121,-1.8919026320984713,0.7969923532699257,10.378906025935395,-4.332902821818073,-7.017732794617548,2.054167440267114,12.844880524934624,4.217471763570157,-16.027551857089932,1.1289910261588973,5.534641104397712,3.321071165550892,-10.159440533190095,8.670139399479277,0.9878907499829248
13.137423000899982,2.602373376733389,-12.83933513556483,-5.264895031777793,5.410237758067824,3.703914431186776,-2.7651824523989283,-4.266913807003189,4.977064772440993,11.332771018139121,-3.8749898375399656,-14.799279742792175,1.7860674912023917,4.393221718994304,2.871779138357544,-6.969012418554254,5.8593005610301745,-0.7649505795319858
11.57189268610903,2.795892539697734,-12.571203152342653,-2.0916543826139815,-6.774267458769407,8.749543608775634,1.6345617569244553,-4.054761440584906,7.902158343102878,2.7910485630838675,-1.3227324262192353,-9.665546789160532,-6.442417014875206,1.1054045488072042,10.625919536385329,-5.733830603824323,3.929871075452964,3.7320328603114774
8.444896033988869,2.6968140931145426,-7.90990149060954,-3.5051612002434798,-1.2832506588642496,9.792880753652991,3.8858095660598693,1.3336861555695556,4.970030818679976,2.3566695978939727,-4.141638442957729,-3.4584145374092667,0.07674324822935219,1.2376515104715686,10.17703519263233,2.2376958652317853,0.6357066682602808,4.029481232523571
10.006639848400559,-0.7222829767414183,-5.007898140068654,-3.255319823476822,-0.08961367671922194,9.373008743899105,3.597954252301209,1.8396822525106309,-9.776394281309251,11.201531673203938,1.926308089091893,-2.330306572916566,-0.04346522921165885,4.594616023192315,9.923733994289707,0.24614678386781463,-0.21455914308122992,7.061111584973638
14.499393977316773,-0.9183615351897876,-5.623062007335173,-0.6585273576515194,1.1036730297681427,9.443062311954098,1.94291261657055,1.07656382141335,-2.6451523736687035,8.817511980794757,1.646484581428579,-0.5194011114581247,1.0096072977731945,7.074640091335874,6.741009488919278,-1.2590450981762373,2.9415770286332137,5.795583214771151
13.622357317960793,-0.3328968992809491,-4.579561682027826,0.6718769358123797,0.14822738435890614,11.858516765285636,-0.20037212817218286,2.1693791686332773,24.020013555313483,-11.533772975098634,-0.0005804071078139295,-3.103884500686469,1.7711242130840112,9.94723963823969,4.144580490084325,-1.8871931511569748,7.174360407208154,4.236879093716549
9.328789026198821,-2.7745730806270688,-5.393103870137394,4.739855924525438,1.7317083028011275,9.295018175541781,0.48848631857290403,2.1883967031853437,4.983774386270962,4.640694331812918,1.184378681787906,-4.907879399955791,5.268503898048477,8.231833451316064,5.161875988891837,-4.958603838010429,8.382141208269335,3.752222199924395
10.017356559273376,0.3504586004071646,-4.64569498416816,5.783596848445431,-1.9584169031621257,7.904979115013852,2.2516713061776725,1.231274725392737,9.680823143071434,3.336180091405476,1.9786380585754493,-3.4899242691382373,3.5914967886599767,7.885505469572227,2.859234303744306,-4.906728318410252,8.322731920546081,6.197123154498357
7.680224394077154,0.2529687983741491,-3.216281272578355,6.342193233915559,5.386779977907647,6.809453253906085,0.10866024779267924,3.5949542646837855,7.34900993607239,-2.165868589849808,5.8001991482266195,0.07576465929579612,10.509870581684897,1.7792007342631546,5.9282309411513845,-2.317454512665833,7.6797077485623575,7.176996105270538
12.571551689594314,2.6947311939748406,1.1412394162653374,5.536716066130381,-0.45173596299291363,6.106070080185537,5.778403561155006,-0.2910228895410878,8.926038363247484,-1.7090543258706283,13.234987779505165,1.492266549039579,4.636605474463806,-0.8096370626912943,5.970335594669724,1.3444107825069516,8.699165590549466,11.574739363320901
14.632684847391845,4.94129584707076,2.469719762632815,5.320309148257713,-6.3877439126475695,4.3299336862162505,10.374067888366897,3.0501115415670714,7.0876130462800475,5.097244222856879,12.56405337505962,2.615098961113624,-2.6023186966484833,-4.470964994021482,15.974061706118079,2.465591188196374,8.451339964784662,13.530898630326526
12.496506250462717,5.430105496448195,5.26139132614769,5.302328865554468,-10.370348752247779,8.707685515116571,10.575310406608386,6.684657921934539,-2.170199815620137,11.905262296981617,9.744495159105442,9.010774298103573,-9.156066193304019,-1.1968932911561243,16.114920636377416,9.835343939635418,5.568987076877747,16.463503684668364
17.979690229773325,6.309596830026759,6.000551643793253,8.119519885726246,-0.6805401961795587,10.059465178245118,8.628278782862472,8.268830134050974,12.989055005217036,2.601459097752537,11.417015360445898,11.40182912586199,-4.184605705757635,4.520275468400618,16.74466400481339,9.195700131662662,8.743608211321474,18.419407320636314
18.58213077401082,4.650003899866218,9.472406817921904,7.033482155274207,8.71670522861432,7.5063187449572055,7.658039603735098,12.783172261623271,3.7365377652537415,16.248914984074652,12.503386204457843,7.249184693245294,5.866673033387558,9.848418709293838,14.152327358980331,6.796816737407166,13.189934359215819,17.738434239484462
21.33526677826115,3.8693137470289427,10.305758615866957,10.247448189417597,14.30578798408116,6.224070755692826,3.0746972017036542,16.712004647208975,8.842399996177809,19.351007377165438,10.4644799654634,7.0998999917269074,12.40390897335239,15.080459988654859,4.626944710449232,8.20524691636804,14.70864080123906,13.736985196839369
23.114128971808505,5.530016259688614,10.356082201981188,12.487880688601294,11.789845355229433,9.337731828520647,6.401882209307244,14.586492443664554,12.095483890721436,24.212591817329013,9.597209527408703,5.582822886579921,13.473966360136407,16.798327215659732,5.258647143372884,6.585011117689586,17.987255024551075,11.297950759311199
30.559518840642966,-1.2079317310168198,5.717046688321965,14.731336045314904,6.833102816867143,11.671403330092321,10.510596031565326,9.824654734337116,15.448969656869092,24.290578003588852,5.604605438927853,4.455816743837275,8.002628071712063,21.056747601607356,4.4261885256442755,5.354192714033697,19.803025426693083,9.444755681839972
26.679061438875976,-3.3560848277220225,6.056747673297236,11.020669426341899,5.4904154535959275,4.826479904484403,10.51796719893974,7.0164030298356685,16.46143753803317,15.87394812011194,4.443759759390712,3.621248293217942,8.392444101238434,11.644482149079524,4.278062432672697,3.536276903999262,15.956620876491122,4.173433348383342
24.26598918891062,-4.137182491470055,3.5625458705412516,7.410636363249269,5.808702263669147,1.1077958506857986,4.7638287335220015,9.091466774567113,17.281379900669243,11.560524995566903,2.501304811837674,-0.24122077688142163,8.295677318812487,4.186713726626268,2.665820186336054,5.623582390802049,13.186375025711447,2.222367110636095
23.125051650555232,-5.602071264680271,4.191543947943611,1.3621095892422588,4.467672446043787,-2.3167654632037085,10.533614277996108,6.674699644537553,9.510251510693639,6.955682740396865,5.343699292192174,1.2670003797401215,8.493604617980989,-6.590132565155503,9.452913423832117,8.002835428847494,7.390610276545168,3.884528004571329
26.869646780585008,-4.332764173229334,4.91633307113023,-0.9725009479011071,2.2486588071789617,-3.2011193449321595,10.248943247629537,9.727187327253644,14.33980073181824,0.008579322563193159,7.990364764852037,4.141969911313954,3.6150642684846312,-6.623400413024225,9.307095071441207,12.724911110358196,4.428736453001106,9.062254621301776
24.366850267587413,-1.6965034100641594,8.373653921177041,-5.062058024906911,3.448671280370781,-0.8617060608328391,10.355238104392123,12.877749749157703,10.773630527956117,-2.835405772925334,13.370998553603492,4.6727194451223735,1.7656616975193584,-6.26486982903571,14.923887688106602,15.395273516625728,2.7381730806707303,15.41175602772918
19.523026240960053,-2.3808942030847575,7.5321314907566705,-4.851812719712088,-2.7722314796859555,1.5763811875478222,12.317375508098909,13.098992019396702,-4.899237784884615,-0.6973860918106283,19.434752049315723,5.984322636263277,-8.675862142727109,-5.905232577812926,19.95555268814548,18.846059267878545,2.5141769861293817,19.905635593399182
23.178234811370007,0.2547562349042787,4.247245709710984,1.0254107357071174,-4.890369921869761,9.58192930737348,16.81896911697868,7.851807347992288,-2.600206445483362,-1.487673602486712,21.884647441897236,10.908880097729714,-9.935787469722747,-1.4429255815811128,24.01147178888178,16.729577113021513,2.780110120326828,27.329114369384417
23.906567746376485,2.6947359042907326,8.870700485111021,4.366327958059326,4.320993305401382,9.385149421274763,22.59047668312363,6.901963585853446,-8.599195384529903,5.047757614945407,27.654345870506813,15.735423992880346,-7.2876221098146114,4.973517706095347,28.45886416007269,17.053823239422716,7.735192695992109,27.818750846430184
30.399607672829863,0.739728840482561,10.660128441293578,7.807662110986337,-1.7009842059421336,12.118975457158468,24.944333930551625,8.393956876314618,-8.34519077521417,7.385255684389383,33.52110234819089,17.04595980819197,-18.79803876942813,12.172140111312357,32.12584583747144,18.256334878847944,13.180077337485834,33.48409350154276
32.208016528320535,3.4718719821340387,7.174070705329639,12.130637696383118,14.83730417759147,10.752000795490728,26.22433273399317,9.6910207981776,-12.971166057355006,12.751453124141353,37.43406363806305,17.770246207284313,-11.947001672603058,15.07467377361099,35.696028013989014,22.680958390375128,18.235777927735363,39.8328734431406
36.65616132658429,1.5159896546437774,11.205676462294713,14.112510281640493,16.92363439512082,11.241297424152952,23.01245714922306,14.21116816491515,-12.418366661836675,10.696929808779734,39.490845680840245,25.720928897347008,-19.44984635578522,18.368623807264115,38.87644256672435,27.593337115325905,22.511595176338467,43.34939764249158
37.591637312360916,-3.5654266190403527,9.766452104284303,20.39396561140729,16.56996615055759,20.032225253590042,19.019705105036145,17.755107396703142,-19.38229306624867,14.991383524072587,42.32816458864167,26.24937336251426,-23.14222663581485,22.542211505529625,44.79214036126797,29.18487867501941,30.206741740387642,47.061040135501216
44.19430130877558,-4.545736056590128,8.911163963529123,23.84594650857126,16.21779879464914,26.08940798683716,22.05869845782942,21.592379692923448,-17.358783036760467,17.822149879456223,44.38345261660959,27.558856264948798,-28.492970332494927,28.669603654816413,54.90798877038107,30.873662839649874,37.121862824983836,57.31553662049197
58.31967601943925,-6.307857292231103,9.225745549009808,24.76138250235944,17.820341126388175,30.78000166085711,18.84798603965492,27.383156541949432,-11.426036499175499,28.1736942229913,41.45738205495677,27.793906999773682,-31.595763102507718,35.28586490176073,56.91911191153652,34.22227165817139,44.03814662647042,61.02673103778684
64.440202817349,-8.558848343310924,14.128205471853528,24.214463521066513,24.60035068758652,30.490616964945406,17.200187406765718,34.44382299821846,-5.685677569102227,29.15117924451753,41.55784178895839,29.200680002553757,-29.52086890007988,36.922091707814175,61.177227743555484,38.156527506335614,48.0257855108914,64.3470407074127
61.09103410313111,-9.247927487285992,14.829335479717843,24.353613139496446,30.014809103133747,19.264078292947648,13.892596346899518,41.5048170106528,-9.219876705883381,39.4071835712547,34.23540696347203,26.603341406185784,-25.490990216172058,34.06650190630191,56.84232278043548,39.25846628317571,45.66668149739604,55.8504883514572
54.03399154073654,-5.933681597172512,14.649487769537973,20.393553919791852,32.89187178290416,11.260704049551949,10.390077058688448,42.120715648205575,10.784364546042614,23.491896374156678,27.790938052998694,21.076152659665908,-15.99044639823011,30.722991268946803,45.96520344819754,35.965620220541226,41.550669718288745,47.93958398047621
46.296476621518515,1.3838594193152924,12.709732405267577,16.631176831624984,41.43483525317146,2.1834993752810146,14.114614794156472,36.87745263666439,4.619252610593723,34.72639125135556,21.150151787266285,16.52544962848109,-0.7262631683651259,28.844642395420458,34.69829953312752,31.79372329919377,39.97461058492709,36.512678296510146
37.683182034444954,4.9897046756814705,11.744476552925558,9.062463549814957,45.58499668945696,-3.4753342707127075,18.03484819355746,22.845282451334498,15.058872198715086,27.309134268132144,12.164529155972053,8.947291190018152,12.00065164019973,20.228132366560068,28.217461766826347,22.54354729015126,35.46958908163498,26.745606181959534
26.729246551366643,4.8838252711157635,9.116952414764896,2.6679065055066697,31.182026236323985,-6.008824903389254,18.146804797090493,9.69230747582388,14.173102526891492,16.669993338764755,6.986458561061202,5.568376316007146,9.494790877419394,8.389066626858638,20.56555693397388,14.562899167696283,25.301105600035193,16.587528718481806
14.020618284159255,7.120972730612899,6.09670257218876,-6.165884288962854,17.269223748331964,-7.956128680754649,15.231740397445325,1.9107693396656948,17.977804232490975,4.371436139834859,0.7330033726617771,-2.0098344470188447,4.549316526569101,-4.621815837331635,16.625459493799635,9.902644621748227,12.398808248113976,9.261124035185254
2.6823434857694153,5.548681622160094,4.246243632749163,-11.481841522428475,2.772392690108134,-9.219642809793271,6.457573421387622,-0.8899778133775751,-3.1173283387015847,12.874685684996404,-0.3457909529922034,-8.41613917508167,-1.5662238397879298,-10.89431188653137,7.41264342144342,4.168237793295697,4.086942340359631,2.031947309000401
-7.38324001198643,3.48728789180511,-6.297862552466123,-12.303443813316353,-1.077790115297681,-19.36988071800744,5.203406214893677,-5.545991116856875,-0.8693835993779953,-0.20377542778609836,-8.066561067044034,-13.357538391784939,2.3788057407458876,-18.33877243632319,-2.092361751262562,-2.7379272883356123,-5.591700450218653,-8.127420187021492
-15.785508563963383,-1.1140476120121914,-8.44551697898544,-12.146426957603047,-5.511929949636535,-25.809048684066788,-2.8864579795718495,-7.565030224648776,7.924493455866036,-15.43011596455154,-16.081604027971842,-13.904273575936077,1.4427657400377984,-27.44356020206748,-9.741102135278403,-6.030570240525066,-14.098105920919622,-17.79898689184985
-11.977436327923556,-2.9818328939637473,-11.669525049475485,-9.057694385230949,-0.47124658934336594,-27.16999288400138,-3.7493144015998787,-9.974501106198485,1.584269176960543,-1.7492343939197887,-19.80105618200072,-15.720467257663273,12.618096493613136,-29.71252575678845,-15.240621977051788,-9.03000374082725,-18.307314169474864,-20.342056258585565
-5.236521378208096,-8.854477332345366,-13.040158223539397,-8.506138811399763,0.1768920383189041,-29.116916487893803,-5.881397082890835,-10.430634297614507,6.868147375730839,-8.966638705859022,-20.78749136326781,-12.75131305212632,11.002066627826421,-29.442683486240647,-19.27454389158155,-7.536895079997716,-18.70770229989089,-23.47161985859789
-2.691794067621892,-10.13812441334355,-14.217600768785639,-4.827671565518209,10.788203117255788,-30.477980487890257,-7.329562637975695,-7.468580221542627,8.639159699754686,-4.660020288140245,-25.974658869674393,-9.87967135723928,17.688739158115848,-27.708342115513,-21.35459847548944,-3.1137187971813898,-16.37359436051718,-24.84392222912077
2.297454153877567,-12.203973746712956,-11.39320249577708,-4.27244922139098,15.93279132786456,-31.74152702384304,-9.461031582208772,-6.752504508936616,11.48719966333484,-5.333598842610979,-23.350706069294887,-8.375066061462672,16.75989234622166,-23.142366545522194,-22.652698670234585,-2.9870989175058345,-14.820758292476292,-25.24025567856939
1.2349797614586464,-13.294209171387696,-11.891294553574504,-2.5435933243786426,16.88023318174273,-33.39589774081601,-9.346084560587839,-9.259001397091172,5.64647134379945,-3.17481719222012,-21.021274361577966,-7.944497077914143,16.907053705795462,-23.655106591192915,-22.582918760382157,-5.789778870891645,-13.560994970005076,-23.97704639149631
1.347433142070365,-11.846329243649858,-10.926647251399427,2.8002766506161176,16.85325829127124,-32.902043791289714,-3.176083213841311,-9.71456984409912,12.699311772998145,-1.9923895644964382,-22.599748573018985,-6.73244033787652,16.177055793560513,-21.043384472720568,-19.387440722047778,-4.685669156671869,-9.762319675892929,-20.175404947111232
1.072265922330665,-14.2081086883713,-10.550071622966799,7.4621563310620695,17.51207075808018,-31.72488307858371,-2.865285964970459,-6.361387501203412,12.332885841636282,-8.036473931899248,-15.390670316036253,-5.129499651677665,14.08159597138407,-22.04565611251855,-15.312414362564905,-0.16301128290060873,-11.921045617233077,-16.179147126101903
3.6321569508013383,-12.371633630339023,-9.394356691840322,11.832612081718208,20.12624209166287,-29.76680902943753,5.160718354913848,-8.769929884197696,5.035455478993768,6.622980625988962,-12.968512609945204,-4.9911447847294514,15.796519220688507,-17.09153422863469,-9.088311246646835,-2.8664522123897687,-9.001937940716434,-11.792987149329736
4.730137143804761,-10.243233677384666,-9.803284483909188,11.809953470876017,14.148755653815893,-26.051294742518003,2.151628379004978,-5.318942869305278,19.420710176135863,1.9462378222608656,-14.84503312833752,-10.028342416705117,18.099103554379333,-13.310104444280396,-14.289579763385223,-5.569272925642007,-4.130133982241141,-13.56002290223633
0.36220880030495195,-8.018243486708064,-8.065855998116142,10.03087342709224,13.642343774947879,-17.160369120498252,0.9005922899590963,-8.118003120903118,21.210753191672367,3.8125359777572765,-18.871807125196803,-11.842499301693477,24.016721033054885,-7.283415736007633,-18.3183941922251,-9.150347281243963,-2.9698720942922385,-20.308390309176776
-5.37003508264489,-7.649836203771085,-8.186032552792945,6.397647488556382,5.716201008978516,-11.785620131223524,-0.7408764516194939,-12.772529119801426,21.343219903404506,-0.6690093229223546,-22.607435728758407,-12.875031202410792,21.146819453243843,-5.26163259302961,-24.885771590735665,-10.582239963073405,-6.302503301058756,-27.252888337470623
-9.048607317647033,-10.309922212073872,-9.773175997218752,2.472732154405965,7.460446685764044,-15.200614111350493,-4.6282916105784455,-15.5715433948786,30.85340188561687,-22.143154287828274,-23.51286135728558,-11.856359613072177,22.184884508224897,-13.592576437026922,-25.690827085068932,-10.841483417102886,-11.784330527946306,-32.44038976842714
-7.157864501235693,-10.627342460363534,-11.753042827612745,0.4045297902017282,4.91003737837616,-17.737282419882156,-4.023286230355081,-16.710377916919338,19.760338336446207,-18.519475180682562,-22.174073083235307,-8.200510071575101,19.415932891058944,-18.799546589452937,-23.76097369797946,-10.416321792338724,-19.415441957636958,-27.960644511245903
-12.393349513345306,-9.188059197772532,-10.414629377063058,-5.959465676350494,1.1900328475583706,-18.02846358466052,-7.8127321526424875,-11.5991351981202,11.11121986241302,-19.485986914101442,-21.61850239646379,-7.96223431641684,16.648593332427435,-24.1053150413267,-21.635335731696557,-7.1582406472021525,-24.313038169881043,-28.657655135793156
-22.020683610166166,-3.3553284001712465,-10.054865485495482,-7.537153332970899,-9.4613627778355,-18.417989512709994,-5.15663805306537,-10.9801827355928,8.617003071314329,-27.191221247461826,-18.330511060474272,-6.063301592220945,9.683558589816407,-26.580215221542655,-22.536641594457798,-4.582874852954102,-26.96549476893309,-24.66801510325065
-18.5591705051733,-3.8715155951703544,-8.427611216091927,-9.99275145663783,-11.125928279294055,-20.273113964104006,-6.113769305937689,-8.01749456254408,8.07836620847068,-30.7952299907371,-14.067977623021065,-4.066207367826177,8.091261519495502,-30.22827914027705,-19.531214595113635,-3.8620738959204726,-31.27920749760628,-21.460582167428985
-18.90363956201933,-3.2169880602002245,-7.778981490343531,-16.939666161873124,-20.89375976860199,-19.882887470584905,-2.67620963708821,-5.543160727750241,7.249140953860715,-32.837174770008325,-16.25292833492359,-4.998313123406643,0.05508865086552639,-33.3893888808782,-18.380884090563484,2.7191667166136764,-36.765972948063656,-21.965111879667326
-16.999352239787775,-3.0519398058266742,-9.671485862173544,-14.998857113379628,-17.182489369629685,-18.51690457842591,-2.5589391813623195,-4.143142981628205,3.4925267041419534,-26.285758028505942,-17.95170038387016,-3.9767033129765217,3.446378305832792,-35.477660645088655,-15.179362953554381,4.809169181825704,-38.25001526931565,-19.540900254601326
-18.998788453800984,-5.524852708597203,-11.468349876401685,-16.572927663165125,-18.937712417348116,-20.765122278859174,0.5857762892283827,-2.7432212018645847,7.648489719479907,-30.379613597529158,-25.902713280248367,-3.931081543711885,3.8117556389306237,-37.2744179556547,-16.27442652492761,7.876809232868509,-38.856465540487115,-23.270138426912037
-13.573693488270948,-9.561502391789631,-13.853161064882563,-13.263382763610565,-21.471852136532007,-18.229017421948924,-3.398487269216335,-0.26917496189594403,7.412110620073317,-26.75914459209998,-26.726890738902583,-4.177814997670438,1.444163413477371,-33.21323017470329,-17.759787152343687,6.160322124035482,-36.63225131422627,-24.75428096966701
-11.075831710719797,-10.181354051443478,-10.57580623954664,-12.882912442688522,-15.312103442459517,-13.740706292337785,-0.35137676619925795,-1.6039056664193794,6.689653712081935,-20.014322249897724,-25.307152527879044,-6.084083378751044,5.718713103433537,-23.196499057406605,-16.99870749826518,3.468401284880213,-30.112587755128004,-24.77460892255032
-10.821643547781797,-9.239913879980982,-8.472308230910045,-8.497888145792748,-14.130546578629058,-13.159694462998187,3.476993067485466,-1.3762516759748002,4.113864208455386,-14.637459217365164,-23.79200031778708,-2.716158477817614,6.283651583028406,-19.626816046240272,-14.479497577834236,2.633162390986238,-28.770355793169074,-20.108434848399472
-12.029912306219046,-11.815392691177777,-7.444989172153423,-3.721717400517325,-18.80609870766389,-8.087456819829052,7.110025363993012,-6.71524174732726,3.8839774371588867,-16.878706576642955,-21.302544446032623,-0.714737984601193,7.240570206760788,-20.16045278318391,-12.643621856078338,-0.9352674782702142,-28.308693834788688,-20.81452281817814
-17.728073706701288,-11.657702651646591,-8.079774244812388,-1.0935727114145202,-14.006492972207024,-6.238994777238135,1.6608462275382774,-6.7808800985974935,8.636703865174976,-27.61703878437137,-19.889626055353958,0.3108376599238478,7.026910373244552,-17.27781965992133,-13.053624766258501,-2.060987567514797,-26.8721825991588,-21.228739575165903
-20.982474455154538,-10.231716622335139,-3.3452837838370266,-1.2971296119527538,-14.868678250606646,-1.0712791299495255,10.469635959908162,-13.975712737035336,-0.47594983450850137,-21.754470475513493,-17.111828838450915,3.485644675140322,8.865341753826804,-14.68996618253647,-10.533666287144717,-3.087743441775906,-25.437476058441092,-18.61668289170624
-21.304872520077936,-8.318702523363172,1.4849877155343663,-0.6214653950591114,-23.248151547518606,2.825737473998572,9.414913136573746,-11.502620994866017,-8.317084327669882,-11.49827205076209,-10.332419603967407,1.3877232593790194,2.794738142289116,-13.373524157229525,-7.9158406925172615,-4.015495224302823,-17.85221192943594,-18.9354882322049
-23.285228708267795,-5.0397459517510494,4.360252260036999,-0.4338598813056207,-16.878948814862714,7.7958024209195,8.067116692804595,-9.615679841510092,-13.226569269323846,-7.5908468233383495,-5.899175853550749,2.3180096648696242,1.9988568232711188,-3.26979980782035,-4.41890546578871,-4.9418610922601705,-16.518997321619793,-12.419393717620414
-19.208628862029887,-1.5667443279187863,2.6437764724979456,1.6094012185854507,-14.316042124285897,12.2763539377851,2.4222597288007357,-9.779767247126305,-8.075441659990208,-2.903230661641394,-7.913745673273864,2.370222495983035,3.2549538541335377,0.09357363975234279,-5.6093707875261485,-7.136352411136661,-12.062762056404129,-10.884996861829704
-16.008820084010065,-0.04817177704380171,0.04658112124552094,2.969145196396601,-16.536011048166138,13.337622298235399,2.1484390424809874,-9.358135706169445,-11.125751674063444,3.4434462075154837,-9.149477910671735,3.7905178337495133,-1.0543138588827823,6.677634015392613,-7.678603368213265,-8.352802201867451,-8.975833818720474,-10.03536688499984
-9.974855992256964,-2.925474972085645,-2.3570709927087314,3.5476428817674193,-7.034700387585815,16.05777283989993,0.9955399028822534,-10.987555289900108,-9.291415585611636,5.882643727982101,-11.26657439541782,2.9655871777037417,4.6962519383660615,12.087732192447248,-10.528963623424199,-7.223963442045603,-6.281705613909721,-11.82366721543388
-2.766966058069638,-9.710367733866892,-3.6882315518772235,8.32536765120566,-0.6560902329590608,13.50306920227472,-3.380242665252963,-9.10154550858249,-4.330326802707647,-1.0545193876741825,-7.526669948518409,5.071318446231227,0.975062285075138,12.905797253908407,-6.543165555861782,-6.972503187595299,-2.0272918212118665,-10.39044092224734
-3.760341327614521,-3.2150896967327984,-4.7281328440372095,6.364581324143561,1.4279222461240764,12.509516692575524,-4.142885877142664,-5.457955997068027,-5.617683047863448,0.9915652044996213,-5.742401330654256,5.029536629715006,1.4541591432858034,11.670881205169717,-5.584658230534245,-3.203785053387043,-1.5838361146712572,-8.567768813917908
-5.044752906873974,-3.1665056708481805,-1.961065633800775,8.407564143320183,9.569052522334749,8.487165302144366,-7.151872942260882,1.6033848949368519,-3.4854232525967337,-3.9950176335449803,-0.933240020938765,6.648920838814466,5.547553731435862,8.382935549708382,-3.2588602309601358,1.8361007270154013,-2.2169885316364777,-5.5743941981873775
-5.057725037152958,-1.7519971776719405,0.9020074803175397,7.0322568263899266,3.3568272344598364,7.295443472685983,-8.891543756664596,5.7347144994449835,-1.253966276841819,-6.346196326852201,2.017912051616337,6.706792643895882,-2.4676930953789764,5.483356006356765,1.7037625932713505,2.776015945720639,-1.5830288760978988,-0.6290592867116054
-8.682192798171027,-1.0223769512383374,1.3220176965221686,10.539496423923401,2.908734493179302,10.399181572835769,-7.994708204092081,10.256386787280212,-13.57202928153993,0.77402730141457,5.650142492400242,9.304803858695863,-4.524942993866423,7.9526402219298085,6.959408421894937,5.182488999287646,-0.07265249379508809,3.240842918329733
-5.468826021134534,-3.9073768741955925,3.4006234358171987,10.14001566426363,-1.4433490135824814,11.352933233013612,-7.977062845977848,12.1410029774149,-8.11495682170932,-5.779273719759473,8.693888304654266,9.364778441498737,-10.48767185808908,10.614881527619335,7.234543640605818,6.711771040774144,1.5328154789678337,4.277471089234766
-8.113178868758856,-5.62176687493268,1.3760522368380634,9.740053729241094,1.7265245978880355,9.47305894675061,-6.104208513414598,11.876843284250645,-12.422288515620817,-8.525405380706777,10.270218695311858,8.058635423335879,-12.0550164320573,9.954355471988187,10.634745440267162,8.438133835318013,1.5731314022518923,6.094160636127272
-2.747900071327697,-5.384283774157808,-0.2594047969636808,7.972332104009003,8.805010562480298,16.576110124290796,-12.337251863621903,5.557589961520651,-16.92362304598991,0.8364998454270225,7.449391552528677,8.218475109525613,-9.03170636634733,15.932106355803,9.835668473065157,1.8653903221897785,5.321752331207794,6.835414529472612
0.47055771323164297,-4.464476512816744,-4.142470763093611,4.543807723537931,2.6043375755360443,15.083658559406256,-7.632950311938147,6.464687870349788,-5.993779485501783,-7.576865812180595,6.090862583718822,3.887200874753476,-13.625004745306345,17.51276494321942,10.11081627113463,2.5211572243464553,7.993389219808879,6.208260568904532
5.057825623655686,-1.9834233578030638,-4.804275519225668,3.9466671373018185,8.124877419977565,15.3473898799691,-2.0500673875400124,2.8792007387320133,-0.04328326056473886,-5.1518226791986725,4.7297581770594554,2.682141646562593,-10.014403632899887,21.92295998046051,10.678912880804926,1.7139314228128542,11.3458227330053,10.462796110349224
9.35367477866859,0.6916697591055367,-2.3424393237067687,-0.264569612067882,11.987509360603385,16.293034264084945,-3.9871845645958217,0.6605858632003803,-1.2206626003299066,1.76383905535,5.807515503537125,1.0876436433713381,-6.207884052169071,22.61957941639748,11.44228693511387,-2.9000373760100713,12.937551821160167,10.907485216967245
11.600218794522752,0.8263888690149486,-5.350805061356187,0.6015676704549133,7.356180618161808,13.62361660712985,-3.4832276749191893,2.543253201699168,3.853134771623336,-1.283262119248449,5.808450750420532,-0.7009531302306446,-6.404775493997628,18.333029719655833,10.350112675246365,-2.238544148793973,11.401311679000266,8.714224637617196
-0.3121488982593199,5.159121087421823,-5.235452609368744,3.2246476165601266,-0.3002869506179353,13.979828840613479,-3.7609169503115174,-1.3362354168114938,-2.205027157018791,-0.23044648053962202,7.466976627380278,-2.1953357935402877,-8.358996903513116,16.68057225813031,6.035168941776272,-5.7743547734822975,12.498853627916471,5.054912037974196
-5.387060660303588,3.8264379632298233,-4.730758981173269,0.5732452496792038,4.0573864366286,12.967038402960023,-2.9647695949294213,-1.0167965627377664,-6.113754108586528,-4.062259863809496,6.095518737072654,-1.6376411933173531,-1.6212173294905865,13.072251427777864,8.65384833982599,-7.062023756153488,7.929215502038243,7.8398300572631285
-4.698797787813617,2.785465171329383,-4.129656991143813,1.0458590957804474,-1.3484880631579772,17.030622035808285,-2.169034455776001,-1.3813229514341403,-0.7440895164600616,-8.481794328274846,5.7957004295533405,-1.5669470967394337,-3.769877489253644,15.12532969021349,6.096579162823111,-5.320254798304688,6.3838830111234515,5.740687420304393
-10.454623582619588,9.067563718796153,-0.20940013838643345,-1.0217262946797492,-1.8692627986165284,16.30711403371498,2.532584948729548,1.6718051543774233,-13.049628173818578,-0.8912329024581211,10.864461662832912,0.45821311648033847,-2.8907808015041763,14.24588519883119,10.668225192493821,-3.3810882515775265,8.35109278577471,8.327950125164993
-10.740339128258107,15.446064711182839,2.4401395109223376,2.573673377099407,-4.145678029995941,16.16765632051068,9.675209993709561,2.966722542231138,-6.213460584324607,3.1818133449740458,8.410981252421806,4.34020445780105,-1.230103203955995,16.098026731978962,11.13813530602519,-1.342148007555024,11.877639048672595,9.253873402897643
-9.266983494045606,14.889614862489605,10.166757403388718,6.558474963718298,-0.07215580192943083,24.131861285609197,5.391429677464071,0.6479275314032846,-7.579812515063489,12.819484980415048,12.497975410008287,4.610215860116718,0.23552981233337889,21.267661158557587,11.705581808644185,-3.1097100869505043,15.693921303922554,9.690359344531586
-9.550279801981892,13.452998164913964,6.466338383564686,6.7333311968975424,8.007503116426696,18.129046257481228,3.1580008782247746,-0.6946703388900286,3.6523561905808024,1.5565062798556113,9.453363263522798,2.440162209360429,7.7561653746775745,20.770237408131173,6.706405756902053,-6.6329286264307825,14.23339959695883,8.465525142456267
-5.340176664613938,10.550272354887712,1.5929886584089044,7.688092203725955,3.6867828617218095,13.979731962196423,2.4866242967437366,-3.2095452242195637,-2.7909123421665383,12.06928265852545,6.113190485683656,-0.9003842497087513,0.8236296835426768,20.562839266048933,3.07429721206989,-7.51717226518195,17.359458032132036,3.2355959693806646
-4.254021272138402,9.013516124406102,2.968740510310358,6.785936170254861,7.8644238051685775,14.027671237110395,-0.43136184612600426,-3.185706492897886,5.805666487743225,3.6345105761175756,0.9149382149863987,4.159056253910804,3.168705116905685,21.036059968733756,2.6647442984901186,-8.59448268083754,15.110960595131452,4.840592777881721
-3.459782073081567,6.0106592679170525,3.2693079764108974,7.249506567875094,11.262924133152646,12.608682509276122,-0.8107374892297876,-5.408386522454769,-6.300698445045586,10.23705882526954,4.893937189493702,4.239394169328854,3.8536762220951086,17.306975452979334,1.4737713074902923,-4.981940351783805,14.616876941320658,2.4405190715355753
-6.961468755526,7.4011704649147525,3.1783402781089753,2.047385079692825,6.362620890500819,8.453182827154645,-0.11637720852123146,-4.2134391092824535,1.3202391780198486,-1.7173588455103808,2.8155871768500775,3.2469595577560555,3.46444082621473,12.891228008708095,-1.7681801443803264,-4.101501290654207,8.552832350115857,-0.1559597615418422
-11.536417644915414,7.813878275764267,1.8169632652924816,0.9452856697149521,7.226211248153567,3.026006315289293,-4.500726351022388,-2.921229753619347,-9.71107045632521,3.4163102093793416,-1.8044248155108136,7.138894628238104,3.270500906173221,4.273103374505273,-3.44778080573413,-1.2655620161069159,3.0712214271304052,-2.0699096709851297
-10.641601288635307,9.201941753941483,1.0407199609232123,-1.0373954301350616,-0.013721726001036494,4.432713819334081,-0.3893659764067139,-6.219331926968452,-0.9175354874979923,-6.784325094817568,0.31139602800751476,5.954129550327682,-2.294683375859254,4.636361632351812,-4.443956816966888,-0.08742724953163306,2.0783119669364813,-4.1802350593638415
-11.113102000389622,7.561397774655271,2.02154963522404,-0.09206429398247629,0.36569989745074416,7.595071699170944,-2.5286209819108834,-6.099812491290644,-8.627892793054595,-2.240700999230758,-0.1144249561729831,9.360799863891122,1.612815853066655,3.140959613305884,-3.7801365747844144,-1.6413007681319574,0.5935186506450707,-5.315026913603019
-16.17366505873078,4.552432100587498,2.415713321166457,-0.515718293168766,-6.186545771816228,8.997370632542246,-3.984797128251413,-9.496372158503306,-5.986321149776747,-14.300971129314355,1.0197491219808148,9.54630522689062,-2.292469990850326,-0.6037667882166362,-4.5813728548329635,-3.192734792092902,-1.6761710466583422,-5.76724144724373
-18.206025921911596,4.4719894285021375,4.9576749266149776,-2.796701746436901,-5.021816675034428,11.276339445528725,-6.125107239759597,-9.963600851634878,-16.723708473908182,-3.609084079424671,2.932669307554808,5.827059932472992,-1.0221099721303282,0.5311652276657544,-4.7968574734835645,-4.546383102916283,-3.851875472270411,-3.876679193635225
-8.713999709972848,4.8786303283440535,1.0536008713928067,1.4634966200515391,-2.097254251125901,9.646719278762367,-3.5783792011308737,-9.454653758745991,-1.1910690590618587,-7.079682315518223,-0.1374569319506702,7.08993641627312,0.24798728235089196,2.737072526903035,-1.9851505305144044,-6.483477210944268,-2.0273217045219987,-3.061342294990622
-9.963589000735006,8.409117793741553,5.352200077420929,-1.5049176388542094,1.2199135424817649,7.428844316924865,-1.5204759409534652,-12.071155968843359,-8.607960434464822,3.4126478105174893,2.4540793915091825,5.0340444639388044,2.201377684607272,2.5959039447894083,-0.15022219560590783,-9.589933484145407,-1.1830898212830818,0.1944675346144611
-8.38040504911662,7.641467515358304,3.3025174958183596,-3.303430611857334,1.6093036631812736,4.915659462404118,-0.3420302097505018,-11.270038520574545,-1.0832356183762262,-1.6247455501436328,0.2579165812185633,1.7102139374320626,4.642697642959469,-0.7712893835370682,-2.2218066951915016,-6.736707168935066,-0.44029411101923355,-1.4335596969495263
-7.284847458740948,8.239832289974565,1.7406434812267269,-1.7836223594301401,-0.24549984614643794,4.646238354223483,-0.6289893076401807,-9.883375139834232,-2.250123594626934,-1.6837501076833865,2.1609266815035397,2.684952973765787,2.786669963897039,-1.114440188797425,-2.7310717801369924,-5.052783934324546,-2.728699319009559,-0.5234143449705608
-8.044160333922786,9.325296250273386,2.2291507170412985,-5.246449687904959,-5.614067983494735,2.2259558480388963,-0.03756738092781631,-6.934587332509087,-2.5382213642508615,1.184809645386717,-1.9932763882479334,1.610525052528645,-1.7065714846684386,-2.925831464957642,-2.7522529454845146,-2.975610953746717,-2.0912144021214893,-2.2509343685945584
-9.877116800072997,10.702547634530829,2.521960301314767,-3.4378972768468783,-5.804882468718191,4.686143216546259,-0.6185759137862642,-3.4002510664377494,-7.221102080913687,1.3167740232091152,4.006512339807286,1.807309576753533,-2.098690107252739,-5.717200258846183,2.2069063678613934,0.4714177658770275,-4.094360191000178,3.4426506067039817
-10.732938667443172,12.176274606941403,2.0331751789285635,-5.342523062079117,-10.193107141669897,2.261001304626641,1.2413235246658931,-2.5030700075611243,-7.8025971780335235,1.934838886341102,5.218679949214303,-1.2169336012426815,-6.690641020987881,-5.191630504131709,1.599371624530012,1.0890475806865783,-3.56230461202094,3.861858372914573
-11.392921521346501,14.625400402535847,3.0089730081631894,-4.026671735804633,-5.692625783746287,2.7631251143109976,0.36627375838110243,-5.024304010486361,-2.427264046486405,-0.4766827783965022,4.865954418693416,0.2527725596700101,-1.9080452548409994,-5.6460859719520515,1.1869517997283132,-1.2203514944402434,-1.9599404062029193,4.47554725554115
-9.708628060436055,14.827223105590827,0.6641743920794059,-2.81074905484735,-6.366174088941447,1.0166311981274498,-0.5093044132939685,-3.8349356890131796,-6.134448739014565,3.457344912268466,7.538273328217072,-1.8891491191503293,-3.7668187750513593,-5.127433723767534,0.5790191678292209,-1.378549662095797,0.5173918471758068,4.697796557444972
-5.191801891931849,12.09814198753492,2.0301867112179073,-1.9877691337209245,-4.205838615924944,-2.1972406965399554,0.2747757102449033,-0.8881172194576257,-3.591939734073471,7.584478360220361,2.2003370857489726,0.7558819611392984,-1.3293409177614957,-4.02632519865968,-0.32207982771031723,-1.3386748775103228,4.064984093884618,2.770793564794368
-0.3815759044294431,12.199967123890817,0.8569648942611376,-0.5811937199055734,1.862594407200432,-6.292565198384763,2.7185203087291647,0.7887643307944847,3.0517394039746453,5.068670990077762,0.47344307368441996,3.50030892601659,2.181637038759902,-4.19827650829953,-1.2233668132391198,2.3173201311540303,4.385873822070888,2.8938485770822213
5.6009385686442155,8.882606522368667,0.17194937682930184,-7.966203223810132,8.225767121470298,-8.241972270610848,-6.264200536470234,2.6605781706599716,19.656000208166127,-0.8673753317708792,-8.287074802035981,-3.8122588303892933,9.988775069163813,-5.447989749243544,-8.863219714424694,0.702606879589759,4.898061604053301,-3.429233458683786
7.286877721522332,8.39615891482035,-3.5404878140175966,-11.544984686861769,8.731220335020197,-12.733052128124005,-16.419315751831512,8.24300626109881,6.3764322395732815,16.14392688619038,-14.022440437380821,-7.900354552980085,13.107516060261784,-8.654400645699509,-13.671172842279907,-2.9600838560825204,2.378823320931371,-7.506884464191757
3.2113457171116,2.2444042780422593,-5.495066571572737,-13.85667298922807,10.898578401442036,-20.644741845163566,-23.44987529516841,10.211721596249786,18.780237596053638,-4.542880110199384,-17.70920106236419,-10.424145989195964,15.05349409274847,-11.57139568299198,-21.6043401585362,-4.8620753938238686,-1.2187032547838612,-12.464122049687662
1.1869326414518913,-3.5178741030287277,-6.863628782872765,-14.705984360913217,2.0323134081344083,-24.457411514879446,-31.555151382784622,12.668352935420561,16.144087029947155,-8.044146265888413,-17.980116830644384,-14.02037853883444,7.916388135535128,-16.44511579925377,-25.24072417655057,-7.542444713803068,-4.234351880389773,-18.007942051650232
-1.7161222368455142,-8.011753120489463,-8.03675427289225,-15.753130127072504,-4.000197279022892,-22.901525219330495,-33.80143270845814,14.148038000801439,3.155500902628021,-3.8326710447081433,-18.15551810084752,-14.68507151442758,4.489318582183724,-18.490343011865217,-25.84986521782333,-6.704227558468211,-9.793183862488885,-17.009297628953473
-4.1306384965922085,-14.069303718097984,-10.869888842617085,-18.36534638658884,-9.15213021641253,-22.03187612423362,-35.55988206865598,12.990599169138413,1.2014735996709507,-14.56504758895809,-19.211948141352043,-14.85965531331059,-2.5520880939833566,-20.44150366362011,-24.115356088211367,-6.644341394311594,-11.74277345040668,-20.112849781518126
-6.056643503233678,-12.99898340698849,-13.995772758764188,-16.194905726369026,-11.860983315194462,-21.653160557602128,-32.728860309747226,11.149195323781049,-7.687069290438881,-7.818902355666987,-19.391532168357923,-14.348801580943352,-5.883543815525596,-16.146168048208594,-25.3107022997404,-7.7533946952507,-11.645654594834523,-20.091892206676086
-3.7831699331005595,-13.004038625140263,-11.359574669991877,-18.128686122313233,-9.099388364889604,-19.812234018998176,-32.53502498282576,7.061306813950268,6.861379688178463,-18.067412545027487,-18.10828695408253,-16.961149539664213,-4.528512995014866,-15.27245863796257,-22.892821727112135,-11.691547192636067,-10.67372849256645,-17.727652446884065
-4.243943586029761,-9.396893976489233,-9.992600332763441,-18.014271468281706,-7.89872435200547,-12.309822446512483,-26.87276729837383,0.3363069734324664,-4.470387443082271,-5.954502557469673,-14.971543432102115,-16.251275930957945,-4.053527979728276,-8.347579090649726,-22.62350642724472,-11.720393625798838,-6.580873620689872,-16.828747157666864
-0.11465966310308406,-0.3220483773924836,-8.332274323629651,-18.97672884646657,-7.5754087390134766,-13.208647618072781,-13.202968535671658,-5.80309438181029,6.267531054395787,-8.101817366295865,-9.785946708093512,-16.125478190644042,-7.2907037036257405,-3.4771245217402176,-17.95967213480346,-11.062618914360952,-0.24601430667980484,-13.488830711481533
1.7686148389251155,5.626621226092864,-1.5933157724067073,-18.769947486235203,-2.1723409540680345,-5.418610617244355,-7.834452727795817,-6.474005761033905,6.262086383445631,0.19806011550590963,-7.043712120642146,-12.384461571977125,-2.618808836870216,-1.6376732321904273,-11.34274562800468,-6.300182363038912,2.5690399663770442,-8.684443698648408
4.92153388788566,6.300648914281069,-0.12739353587126345,-22.667460446120643,-4.385048713002332,-6.518108666067466,-2.759265551501022,-7.828860221179214,1.2750376812758963,2.2456664051922353,-4.303354182213521,-10.790021084121545,-6.542040453640345,1.0770852834868432,-12.92911412686114,-3.0972138546975243,-1.3584171736294435,-4.564018828517012
5.1447904757962775,6.680583986504759,-0.516435145696954,-20.805848889412776,-3.178228788401945,-4.5928998355169846,-1.2977495126800331,-10.551257288545544,6.345629998972657,-4.498088415933614,-0.5882522509149659,-10.756198904972464,-7.73213890095024,-0.21573326819031813,-8.070097850809587,-3.60216540515656,0.1788327260232645,-2.7876993763122737
6.149355026762645,11.942291423562637,2.024840164082921,-19.1422457003217,0.9598088099141457,1.3335925535315383,1.5306617847326045,-8.098123642785584,1.1610070800809944,5.943767092140555,-1.3671952989862675,-4.763337959186401,-6.09148382374261,3.370730005979153,0.10927525381573311,-1.6625819306218776,1.8096167914154933,2.9923067763795466
9.986016849888342,8.999639015080199,0.8557574687799483,-11.524221800869954,2.6578671732547194,0.8119912448870084,0.7454461949952886,-4.571079570517367,7.205826093235867,-2.0738284259172106,1.953743493993036,1.2314503715312966,-6.014710066144316,5.879359338738404,-0.01224520227912329,-0.20817902765776064,1.6784427075004835,4.865762357617811
7.865556553926559,5.95822439092302,0.4686240950412679,-13.869995200395264,-0.4278605461874768,-4.497519564947738,-1.700217963565338,0.22519526593691985,-16.633866552542656,13.73494153184814,3.319831117455304,0.0015037427013400162,-10.13861227482852,0.7670943764808227,-1.0126493629497872,3.9837644525712346,-3.242072792928196,4.395231526135593
1.5457911268630742,5.454811980512805,0.37520246801153956,-13.874694828767584,-4.488743442466009,-4.926819298426755,-3.071889575501684,3.849262267215016,-1.9000393188379163,-8.056625339019991,-0.100958847636897,3.5587342520832976,-12.017814362362106,-1.516676581373087,-0.15749801184721512,5.053798906440144,-4.162724475017066,2.7526480848882624
0.0112107619230839,2.313547268529293,1.0638322300631051,-13.589135244973026,-4.153626633958187,-3.6009496326926773,-11.377478102925263,6.398784111938809,-20.56649026937835,3.060376800874021,2.6290896835269884,4.676478800490569,-13.996135928095965,-1.3625725069899035,-4.673440571683319,7.298878749168768,-5.77107328212975,-0.647892912624787
-0.8398310993136366,-0.3405160616821079,2.8275373295559305,-11.841423423193955,-5.086679733045523,-4.719185669665626,-10.210457174289777,7.776108020425248,-7.300234092462924,-14.243094184531714,4.966958432855228,6.382136589478556,-14.022797317001823,-0.91904979593635,-4.404047897332521,7.105680453731586,-6.6022405527019075,0.34608819871656404
4.5591356781716765,-3.386291364106617,4.689790849939023,-8.72921481320024,0.7200114166635256,-3.9845773900277917,-9.92252045702641,9.055474104900702,-7.512162033051433,-5.376341678756923,2.1274695448348915,7.894454517752374,-9.168098244774562,-1.0650123076260627,-3.7438933336244746,9.845391560571308,-4.800714674056378,-1.8826697640198162
6.832947400924732,-2.722146915291229,1.3771250364249088,-8.061156860601166,9.1648013505937,-1.690086820340067,-5.240122478866078,4.670396147886383,1.258964839467624,-12.527488340301398,1.1420327995116937,7.553259362756535,0.07964165324763695,-0.14026072847021087,-1.81403150019956,8.779638774731827,-1.9290029345530089,-0.0097932613248366
4.809690953399029,-2.742674031524185,0.7998667523523766,-7.884088232633747,6.477928493185668,-2.132641581588233,-6.026666815151493,3.1171025026393844,-3.9364629135549944,-2.102249283851413,-6.290206166840239,7.31171380581946,-2.0025037199603704,-0.3909034062177108,-3.790296181448836,7.619425906747517,-4.334839873410752,1.2771896600664867
7.376200854813893,-4.326785010166085,0.0283333771105988,-12.592598616785464,7.210376078737755,-7.3630395104357484,-3.590585786353131,1.3682081692451329,-1.1254934566805361,-4.667473707590967,-9.231525872939608,5.5096436421655275,-2.4260838475854705,-6.016201532542481,-2.250671994581184,8.317916325937878,-7.4282911072417885,-4.174114728292659
4.180737212812572,-7.376814352283768,-1.132741342043123,-13.690453936840289,4.42842468845505,-8.006121077027121,-5.842126954996421,-1.7481748127399894,-0.2692551555008751,-15.535565441844678,-8.560790377273921,6.346338556248466,-4.316174310638661,-11.25432483173678,-5.398381325022589,9.800882311123704,-9.939783380156053,-5.425995240773231
2.059322791811089,-6.228604955939378,-0.6324960179538989,-17.427736837732766,3.6985458280202628,-11.483856276884294,-5.0662989280174635,-2.911678386231398,-2.7349944053072424,-12.83116488631141,-8.8678568681835,2.2045011399729244,-0.1531559784173595,-13.85911968615258,-8.448166501699413,6.697154403190008,-11.869292011817638,-7.849582936057098
1.0119389365608713,-9.37837160509612,-1.2052989408311459,-20.777042639536315,-6.307577843657238,-12.71802258236621,-3.802172542850319,-6.3215805191785295,-4.909412002887381,-14.327953784234005,-8.980774893575182,-2.130633568218274,-7.222474667966586,-17.639210367449742,-7.981977634293788,3.69430918169072,-15.658233771675437,-8.905731594294139
-6.2857631299337005,-11.35727179182581,-2.753444374803346,-18.95312535945608,-7.620941417346806,-16.005538728767185,-3.221609841266549,-8.65751322894161,-10.015249690414148,-13.385177707048095,-13.19642650194043,-2.752750756626255,-6.578553546988074,-19.664835068268548,-10.347538303228784,1.085323702195454,-19.06045184354062,-9.961604306674877
-3.5249586833522852,-7.477724461115241,-3.7143609474764876,-19.670927807101,-8.640129601088908,-13.826735101559791,-5.473049884090648,-8.747578862580369,-6.528929572561518,-14.690378963777118,-7.549695415674693,-5.618967947039538,-6.619981954746466,-20.326593129419688,-7.829857005391812,-1.9110613597302915,-16.704739665260224,-9.35697395993088
-4.475406575508512,-10.142252599790318,-0.08403427651538192,-13.652944101605737,-9.462818960071024,-13.603574534613472,-3.036815128386685,-4.540960160342233,-24.529070165644203,5.096672653412698,-7.568101988171991,-1.3541380530221898,-10.960118888004317,-18.06192706892685,-3.3586354506688405,1.7365126242172786,-15.134132910831273,-4.650351295742188
-0.6409005215971693,-7.241285925123566,-1.8235073414065464,-8.028166842255773,-9.893712598607616,-8.98827671256886,-1.7723381534381009,-3.654956199986718,-1.4170936975440522,-9.298272386578658,-4.364730678499598,-2.6537638677643707,-9.54023864143908,-11.99188156633981,-2.6956493940263906,-0.08151406276613171,-10.051656042360161,-3.263678623988997
2.7050247861247403,-5.415539756101406,-3.073269770015809,-5.628646245870236,-5.049941846287927,-9.062982478531575,-1.0936404665994672,-3.452803419286881,0.5013288697087503,-0.9407191485782302,-6.045111903501494,-4.927928803493277,-5.485409340595763,-8.659487536886324,-3.106450824090502,-1.4080205091042428,-6.633132266742017,-0.509338331291433
1.070096955999162,-7.49707703295087,-6.567692902646971,-0.6925496304423895,-1.4745933751664766,-11.679190785035997,-0.9030321078783405,-4.520443767250999,4.566365583823114,-2.8389503459264107,-8.31224229081192,-7.102395557125334,0.9113764442725856,-8.260020780023595,-8.00902902976095,-3.219586669791725,-3.9019451242397114,-5.9577427595134065
4.024758552630432,-8.21236774429843,-9.181684281373435,0.8230285842118548,-1.218497553065884,-9.805511814329446,-1.5911117051382053,-5.295349009523958,5.602125283052127,1.7065420299138019,-11.654346979509567,-8.200585222283394,0.07964192273967452,-8.742627076272534,-5.782081036760339,-3.465403891737071,-3.3229196338005558,-6.522708475144971
-0.442908056834471,-5.901217738648714,-8.669071750374044,0.8712725914390909,0.9918460233407278,-14.672551404795467,-1.3023498057432974,-1.6758897817624983,2.5343428054939228,3.222992592704646,-10.993159203134322,-8.90610114947785,3.0546945673969397,-9.326000845499241,-8.144503529888654,-2.2431351609432753,-2.552226938879329,-9.235546492791766
5.538448347833986,-7.399655727683283,-6.982966652724997,0.9170794923978036,1.0547949670427523,-15.14729116905192,-1.1109491597273244,-1.7676543654213257,15.67579899720947,-6.981101189288116,-8.965372988153714,-7.656419359937661,3.0981342396090596,-10.596042902327664,-6.697698540175212,-2.775492524238632,-4.324238675885786,-7.846115191422591
1.4606874807283523,-8.215412035991964,-4.318641715635771,-0.30906878060389786,2.8766418474522597,-16.796184567961113,-0.5285887294901617,-0.9807249679656058,-1.9469073292523809,6.641715339414745,-9.184259126103457,-6.892983935553833,5.483463932337363,-12.3573901903351,-4.859654520677766,-3.695275639264697,-5.220886874862311,-6.6513089534165255
-0.27367215046899585,-6.981264141110694,-1.6526323294256644,-4.174346533733059,-2.820115417623028,-10.82999556787384,-3.2662304143462286,-1.1705948063129155,20.175084953857063,-19.679024011737464,-8.134072785999026,-5.443903310848786,2.7886815159746767,-12.363865179620248,-4.388178259198716,-4.123574283288249,-6.902304092898178,-6.432343631383294
0.6283285503758393,-9.361346280160962,-0.44976336386233484,-6.772408657371358,-7.246296715282933,-10.237162516552559,0.5395895981210774,-3.0208643926436927,8.017182504601246,-7.621772685570989,-10.20934554177188,-6.141254028265201,1.1662118373785155,-12.177940296845597,-5.771525892098664,-3.181479674769857,-8.684835181968646,-6.212595919135882
-4.817836268879478,-5.199238260099589,0.07126751801537967,-4.196908647310524,-13.038677257277756,-12.380883697600837,1.9043910490575389,2.3553241005752503,-5.90061258205366,4.72699044477829,-7.109102251025613,-5.859991269959499,-3.290266391299545,-11.018300320729777,-6.079932675725672,-0.7713464174692986,-6.466802166995612,-5.1131004643447
2.1381061033274937,-4.553671573370931,4.012124963199164,-4.455742956117678,-8.868975142402924,-8.76489137473048,3.171991254143496,-0.0813180442813577,-3.3163273145300307,9.554686732550067,-5.962290265018798,-3.135252615947752,1.0405073267406637,-8.787232353199705,-5.996970332052015,-0.7994979487397256,-5.131037264502273,-3.426785061488569
4.113064890694715,-3.6159780954232197,3.1695974681373373,-2.6659850532859437,-3.1357717043398208,-12.377619063529934,7.565126851678135,-1.6392489196584754,0.2424341802902905,8.033250374259671,-3.4484783436917423,-3.8265070007182023,3.4161721022555493,-8.121438391681952,-3.7647672168932553,-1.117479329510989,-2.2360403019571145,-1.4465778228665824
4.036759628467986,-1.507221395888163,2.0359788161361165,-1.8549841312409932,-2.5774664230193114,-14.332164945102306,5.0250814258110506,1.0018974283210351,3.2131255979279993,9.92849741655344,-6.110666657976732,-4.320423439010922,4.715639231514267,-8.630228692604602,-3.680231770031873,-3.287831282848914,-0.418511739298296,-5.617844861071023
10.210085921588549,-4.477479572872858,2.662118318166957,-0.8508053854030546,6.673324658920169,-17.36289677145138,5.512974838081973,3.1545519986249086,10.673927958672119,8.795059729666804,-9.35887271471466,-2.566195692124117,9.040526547829947,-8.262730167113956,-3.2042308760652505,0.40438921954229534,-0.26433766369440015,-2.952062427176745
4.859323120100662,-0.8078060463855072,3.094896933566592,-2.2901647634934577,3.424857052643506,-16.196246138059113,3.950634462865213,4.135112854960415,10.124630066094701,7.562712894356901,-8.212482827954991,-4.618610888686068,5.062530059178533,-9.75329726592955,-2.336732977884222,2.3418584170615793,0.5703298462050501,-4.875142288423306
2.633120663592125,-0.263956584191785,3.9202958228594937,-4.415178852265649,4.278931962228963,-16.789283334842942,2.0959289249408464,1.502138440393764,5.276206608962873,7.110420578140644,-7.944945851532776,-2.56740028555264,6.160755150504942,-13.785470207208876,-3.3238349172163906,2.0362659666562397,-3.1879632405103555,-6.504154146466316
-3.1092589926230465,1.3533703583168597,3.185193824671172,-6.54219838412946,-0.9208699511038214,-16.798169365423163,0.5348333556231601,3.556538298423611,5.406124501504235,3.1412868251868344,-9.435112217341471,-4.2251923030885425,2.9600548828035427,-14.109088009223232,-5.384244028799269,2.9056094927530074,-8.609419030468965,-6.37418920251706
-6.508362285905254,1.8957236786604814,6.065483694296247,-7.694599934689291,-6.119782911192578,-9.777438823703307,1.9041347656638354,2.3880367785736247,2.604089448149682,1.1241902735278622,-6.530475012485887,-3.4395595568023785,-0.3402906673694197,-14.923366277034237,-0.998284077471431,4.656890831229916,-11.299371801919298,-5.364125073992473
-6.880595507531642,0.09357238691767078,5.334524041542156,-5.919181802210371,-12.978002363869107,-8.422542100999852,6.789806908306394,1.7076289605034267,3.2178382867923583,-3.237763895484398,-6.164664510603721,-1.1870907619578004,-4.326229545131398,-14.66571238412337,2.0214554073635096,4.0673779258443465,-9.792886338201464,-2.6926585082192296
-10.37840638161902,-0.3420693189258026,5.386943371432704,-1.7041849741616772,-11.53445243275215,-5.4090916475342965,8.16051904076622,4.445047641498659,-5.545808119090006,1.4814261970506974,-4.13832868187353,1.1649933006691455,-1.0874852489766904,-12.261820888964621,5.335185063335583,3.67614367659535,-11.511880105000358,1.1519623527982592
-8.40792349212644,-0.680731557437575,5.929797448636447,3.3879151717590403,-12.336182429527415,-2.201895373048046,6.1139546353429,9.037769196919175,1.508833121061615,-4.835687121379106,-2.4045532635664895,5.960464834746979,-7.03055740801598,-8.39522420760586,7.673382633621626,8.366045011696988,-9.620238868266956,5.1931998319465755
-6.437989623092554,-1.8013130663059882,6.572483052784591,6.036804622738963,-10.695633969807396,-1.4376529774293285,9.146361952524826,10.798221928634872,-3.6460223443227533,-1.3879579135251268,1.185200887325644,8.218764356680138,-5.846601531918811,-6.483870068759511,10.500941831578782,9.64082670303165,-6.656989840897561,8.454515355738048
4.3205828806043005,-3.508477031631413,5.068898625995841,10.4418159798605,-3.0971413255846225,0.20405901676491744,9.835776699194176,12.753795208111073,1.7438671592886807,3.4260959257696983,2.9200082318654594,8.232849137939569,-2.5161592995178514,-1.058850493491093,12.353023350350643,10.918476041151942,-1.7431377598044602,10.838289053886394
7.949573795329805,-6.290490420930379,5.716009896113953,13.67326737365832,-3.2128008194731295,-1.085349977663137,15.408894646574108,9.826285563322969,1.7602793854336038,6.286159435859705,4.069487636130731,8.932434186783055,-7.097973688576572,1.3368417569498607,12.839022147891214,13.859139196503344,3.0705819679444275,11.367980376167907
7.671680337831436,-4.971470885104976,5.291135269284923,14.656974494676149,6.73108375112786,-0.4229307737867458,16.197621521867113,8.070471477700204,5.680690237435215,-0.9133111861999188,6.000915295924727,11.880024869564066,0.13482425989382207,1.7775188897288565,15.86527281305559,12.798630014236105,0.8505484239935974,13.852276961529842
11.592487102118213,-9.12185445926167,3.89195495918051,14.467223753802596,4.956824018708898,-3.2774538015598687,14.350448568032808,7.291035639319493,-2.315462382998639,3.117120440857854,7.249492464816893,12.778660833201199,-2.888408075026679,-3.350077236905765,17.037201031795053,12.522138704643545,-0.4928813521294835,13.310668702040314
2.6218820950893242,-7.999266865777448,7.670927685879145,11.346227477799797,-4.140993855482501,-0.6643431766675238,10.648657586922178,4.75355906224688,-1.2317713072504357,-10.236214131786415,9.084836575194988,16.02291925687139,-14.409823516593564,-3.889462287330545,16.452487492425306,12.443677928521527,-5.5495396408071045,15.21202249605209
-3.419587880815201,-7.170176080682985,11.256897427040657,10.860528829303025,-6.9879559798458075,0.28745057162613996,12.611913335808827,6.317503460279159,-7.865373545058783,-12.652520492444014,13.069537669215944,18.976018663172052,-15.67912689677929,-6.383624431948995,18.9940410564275,15.297621660171652,-9.4364565500156,17.70087349157434
-8.387426618112801,-5.462665676798914,12.989700857076727,9.299185931665065,-5.146598041011526,2.507724793018843,9.400224279705427,6.904663218637811,-17.138071038964167,-8.135715877652846,12.953565903377072,20.75901550711065,-13.922980715483796,-11.223113215260437,22.41575441548396,16.396353765612254,-13.813729437483113,20.093648430097506
-7.7893844281062306,-2.681396312238099,13.455301224317601,8.713063801431083,-11.0194647521434,6.680149393864815,10.97469635777227,5.343141895921573,-16.452018444899068,-10.553148963448276,16.549605277837408,22.15314641595581,-16.075073043593612,-11.962435436443883,21.932417835855023,18.083613539598083,-12.724150631127388,19.07001373635079
-13.051422890999056,-1.8537337725770424,15.388130592377093,5.781851925945075,-5.465650648159899,3.8202785220077455,9.620383341831268,8.27366183185101,-12.44794391229966,-21.36963513894632,16.7287047559827,23.353700150051715,-13.932141025246468,-11.72655555580046,21.0597282758575,20.847641352718885,-17.007642506305228,21.368381695329525
-10.110833036833343,-4.542177464295287,16.15144383365972,6.560382979814815,-3.9150901766934996,4.475214804282247,7.778742751505935,8.274230359745015,-24.6573959599354,-9.822935285814317,17.98318352601835,24.55596403212042,-16.673998350668,-9.831785360916712,22.922750480106412,20.196130970316347,-15.921765656375262,23.18012724610429
-6.584923834289996,-2.1528215633546357,13.596783024899452,8.5096085966535,-1.7778809789635388,4.641057974928108,10.527989841310275,9.934756428665954,-16.4587211859578,-14.19483233270134,15.527874558450632,28.494325184160715,-17.757561358995794,-4.4225430179548315,25.275372203761947,20.2306554391269,-15.521210815442837,24.212302529324976
-3.3526198141577725,0.5291295897232136,12.314072806448273,8.504534019364064,2.8014626380812473,1.4858009758068462,14.059484244163079,10.716133542944856,-19.297709716490246,-9.582551140700305,19.128613150771045,27.746764307841907,-15.327316740582667,-4.483255178549175,25.383191195667898,23.490262124456542,-11.997235851931197,26.418086237608648
3.101753161519161,6.531091077819255,13.76818862186255,5.373319304235361,6.014277477003882,1.7478955471253812,11.146563401208095,12.669168587478143,-14.521729633577689,-1.1619003723687298,19.21500105379949,25.242981117628617,-12.508294774192851,-3.9590559147147992,25.68766410767619,22.357591594042724,-10.037320969508826,28.039661444279098
7.114042012974371,0.5208230275699735,14.150486431536727,3.901246628744259,9.130102844386478,1.6187576983786283,11.945641195784091,13.645385226006159,-18.732591856568625,3.1568947082870125,18.61917197515917,22.64312327399387,-7.933268553790033,-4.7053557245986735,24.13799020748941,24.840521035449658,-8.274165484339667,24.389477507045164
9.758478077711757,0.7603483409799314,9.945293900262387,4.381342060346874,6.191805273085304,4.418818613611709,13.136362056484169,13.449461543059659,-11.226849222837442,-2.8762094984651987,17.92713052075087,21.021390579899542,-8.340602489885903,-1.6438651055729547,23.46859668390455,23.712318397789428,-8.856146419344947,23.67080395867498
9.765507270414885,-2.4184236138694795,10.332443397375153,1.149509419339556,3.7424420111432024,-0.49654727796612885,16.769544793563384,11.886075257036804,-14.95406307043831,-1.4874524776077562,17.92019566458314,17.350356356770593,-9.62865074870964,-5.614505821845458,23.67949265362509,23.46517870070089,-11.39253867856566,22.953926426675736
10.94377832761692,2.0198575648892545,7.011030299074617,0.26058120993470135,-0.2688108659635655,3.474543977697701,12.78644710646125,11.591978202894243,-6.281051360720298,-8.204363102499665,14.594455972087468,20.126205892696255,-13.262257623871687,-4.214657184741319,22.036269164100887,23.02480406559474,-12.367568671409465,21.848230252058194
6.261931161013044,0.3054763868939818,7.110071422876475,0.34740151968286526,5.876964019943015,5.687466803589672,15.93339135163027,7.488960418604067,-12.649628831132517,-7.987597626044644,16.250874098726694,18.41123284896579,-7.815444680532956,-4.280273089907581,21.566322593641658,25.516177770558283,-13.636637771971197,21.232649872085418
3.2396092915334043,-0.43252616675568145,6.527941979439906,3.070204181407693,4.79667741315858,8.388417230827958,13.710189046996756,5.8271094962690935,-10.719584046993532,-10.505220642072887,15.760488568593626,17.86954540614773,-7.253244922405196,-3.7604529350188205,21.879027091446872,21.85706395322131,-16.078569279651646,21.30251402705447
2.75573023905076,-3.319171769060306,6.7295068879687205,3.3508387266668214,-1.8495007023485064,6.303945152562054,15.003695462775074,3.872000659530274,-14.065330065187553,-6.967983988088708,16.248399412522474,14.301818725430028,-10.599056149154874,-5.096552097436254,19.556365556147057,19.46938326295417,-13.638486343045617,18.63981357051599
2.857137389090011,-2.787943181471392,4.785031295145496,6.267559397444201,-0.975444847978991,6.270160035955895,12.294264192578549,4.162726851905662,-13.995313931436694,-5.28611324108719,15.566187471083724,14.837024601699307,-8.087078621959115,-1.6477561344743634,16.55149531047862,14.935045678406627,-13.542964244022846,17.541499344422533
2.9578828211030186,-4.893594224287289,2.061719462026865,7.6211348267508185,1.4617110124893653,5.259739336421692,8.80459891999395,1.3281038474664255,-13.829883493074778,-1.943878605164218,12.053721051312941,11.467183932570826,-4.307199515147287,-1.0312807570358036,11.106578295615744,11.086055092928934,-12.764515102711282,15.273163441639257
5.206435673461533,-7.29231307020515,5.2002921812384315,9.267113209561838,1.8486185498521355,4.151669804107858,9.905872297276956,2.5947957104214785,-10.346316799526925,-0.8475388074365187,8.933754224871894,14.641629376200042,-3.7516474161998197,0.26864052529546,9.471709919161976,12.51225333339051,-8.763939374282504,13.397337089662544
9.309821919861093,-6.273079557126376,5.313888144265043,8.959417298787399,1.6501317799823356,7.438274211714488,9.836273300014874,3.1775643113107646,-5.98603964941047,2.299897273984617,8.647777895012828,12.348412286252461,-4.564896998995366,4.205250104508387,9.400761006463114,13.061129491035613,-5.447448081786094,13.574207856027243
6.283529005092746,-7.304701147034949,4.74628475730229,8.455936808818272,5.26083676756661,2.228797174082745,9.377058208134395,3.9553203239385235,-13.346881669351932,7.4984798214757635,8.16844826760265,9.86100300450455,-2.9382673734400893,5.4074595241241585,5.815526766221392,12.537293556805736,-5.744674652441904,12.483417195869235
6.479277270756871,-6.4808423248074,5.255311603229273,7.268433020480611,7.407203135376365,2.000072680983279,12.043898758529716,-0.7360942595982722,0.6771510106807384,-3.709054293007593,5.737970920626404,9.816111931412845,-5.219481907057725,7.2933765205249514,6.333307512379333,12.307878189433126,-4.186686755920785,13.542989306490629
3.0610251506313784,-5.949947566784662,5.669064698109016,6.666506102440587,9.163453434910833,7.631085733324564,8.559301483186854,-2.888753887211731,-12.156844200015096,5.006023545817991,9.754955158664204,6.842513879982603,-1.2521052123354686,8.398221322661138,7.63373559218801,7.685235061685143,-2.5312248169136904,13.334905288911163
2.571841842861389,-6.590910858453786,6.378162558526506,8.701017687319192,6.62326527923725,9.35612709846969,8.884346497132196,-3.869876086257725,-3.1176328977681287,-1.805997573275433,10.160696155801578,5.82304554554899,-1.7784576659854956,9.991630303196235,5.908153624348815,6.872536527009876,-2.1453983758216193,12.152139126601654
-2.6055753992967645,-4.692712559249533,7.577906901216101,6.535974577136459,3.49761981128417,7.761207393657168,9.503344576511308,-1.6286574720166662,-2.0884604941313043,-6.957307200633759,9.591994065279641,6.269367149345701,-1.8179629036735019,12.75729273564139,0.7659241493226627,7.428260328133181,-1.9548736382629173,9.799374906105275
-1.6312160504211213,-0.45064282550302615,7.998732044664907,4.76133867301286,6.231914688831108,7.045672971344123,9.830337528624339,-2.2198870511320843,-12.780297088158516,5.76332708863478,10.002043627735745,7.693138213595938,-1.5659042570965251,13.179614332964722,3.730653067494215,5.5436749942925765,-0.4946861110881269,10.280578393061097
0.3190614290567386,3.205591239204522,6.273413295889375,1.3263450318511842,3.6931541289704235,8.674452766755753,10.353601158043775,-1.15131782268943,-7.36066180129947,7.058630141797334,6.800969772195679,4.625472883362894,-2.2917997159492653,16.043907911371942,2.0091680948069275,5.808613940838205,3.211839642790297,8.419886685114914
-4.4697022570424805,5.592410298362685,3.476168220407402,5.899156996157368,1.7407889117993167,6.788144469669381,9.803570833414463,-2.036295112853847,-13.17369606463666,13.13983298837431,5.2623279707909605,5.2695683634112775,-0.9682262684746874,13.635294669368584,1.65623995205992,1.972900749062596,4.867860643761398,4.998557987704757
3.2410702919865333,5.53794602575412,4.489865032037329,6.956207752035631,4.671745749586826,8.12519347276008,6.8130231027660155,-2.23806874300708,-2.9728637484858123,13.655260568821532,4.018946168568148,5.523746112964938,-1.8920910265603403,17.868100625033275,-1.0391354472801044,2.4350194308999704,10.430596083874772,5.8760520091273385
7.142539495318299,9.878264465156512,5.994120584979924,4.692858741732402,6.1382574502819525,9.365297121096091,12.026635505802487,-0.87772769007488,-0.0006795994285955231,19.835597575795102,2.191939828469737,5.680925482406364,4.897729296024735,18.1953705509545,-0.9987663217746547,4.558128861887917,11.892207679335517,3.0444284316476438
8.99254813729367,12.265636388881413,4.082604134926404,6.921774564620856,11.023196705890202,11.875723436544668,13.237173381477362,-3.7170870628055983,11.172807457179967,14.102494497818336,1.2462090100178749,5.741052260761929,8.951890585223701,21.355568148958742,-1.347711757036139,3.4592594839470934,15.795859699294589,0.898279068283081
