Fp1||F7,F7||T7,T7||P7,P7||O1,Fp2||F8,F8||T8,T8||P8,P8||O2,Fp1||F3,F3||C3,C3||P3,P3||O1,Fp2||F4,F4||C4,C4||P4,P4||O2,Fz||Cz,Cz||Pz
44.5877418724807,-2.6170888038474374,-35.15168024589537,-6.38133600512468,-70.02407917471407,-7.067319593393286,-33.230044627453196,38.68254610291714,1.7505204303207336,-8.46055840926804,-5.916125676081901,13.063800472516867,-14.979105135744923,-64.1189099154605,5.5821567898663496,1.8769609690856726,-27.22014452383292,-18.258118233884616
48.746212971175964,93.7179063283204,65.27629296474498,-67.80145004268044,-194.77181125861796,180.62956651546483,-5.498171514603624,97.53176291334746,88.5938426348296,20.542631434131287,-30.99178727889784,61.794275431363616,7.154469474395661,-68.58417844038644,87.35722157601063,51.963834045959764,15.590634259166222,-37.63498864116332
63.36532569316166,66.71044083929908,19.509084152122668,-80.88808399023239,-130.16750203037114,102.40308670977734,-38.02678943506575,85.87846465873469,61.275448424629175,13.704607532137834,-24.720673961871057,18.437384699311842,35.24679337784572,-78.23024515268877,47.74336955564438,15.327342122661342,21.876857248807006,-47.15210926305281
65.0069278609987,89.41041103185972,33.01908926394695,-97.20497408160037,-131.78180089831946,105.2313303028271,-50.15054097376351,99.32931090554774,73.31344908963227,9.990718331822945,-31.04884694903059,37.97613360262814,51.91495196428835,-89.150664488204,47.6803488272989,12.183663033294685,33.04537986768959,-63.21614589829929
66.17090881687011,75.78172388621448,25.532160353136447,-48.880435168380274,-110.06289531678866,79.0541634195632,-68.23694641218586,96.47714466103514,58.49604016068233,5.787538231342691,-30.444835227597558,84.76561472325196,63.21388896338834,-91.28654644334017,25.448259149139233,-0.1441353171791988,29.759945084361533,-60.43624856308969
79.06417798278828,88.03273058153181,32.98686357065256,-25.369395737627706,-123.01980931454173,50.727604352592806,-53.320492308691506,106.61900567957544,77.56647871435105,-5.3504321115699796,-38.33863749521572,140.83696728960913,56.936551236281275,-95.08711962358207,23.23503510133361,-4.078158304715124,21.688646592461794,-64.105931172716
68.6272920196152,87.39367308134536,14.367468758647142,-11.340022858590537,-131.58976400338895,39.49036800948132,-85.96873351724233,96.16034200450153,57.96520572949899,-16.78255406308734,-35.10112237416431,152.96688170859017,33.37607676006211,-101.82177825058005,10.571252062363708,-24.033338078113275,6.292362469254739,-55.963352089918004
55.66102859447328,84.02131468450861,14.304086375559208,-32.18375448088781,-166.73057053940047,18.19374294740981,-66.47303090973614,84.04645888550834,37.68122305522034,-11.223494442272013,-36.4552589523399,131.80020551285602,-4.635295014318537,-97.91593326333638,5.523381875594573,-33.93555321377906,-3.342788882206051,-63.05985744669506
56.180929950486224,74.88861675310851,-3.7267530618295623,-59.48260647932827,-169.26193590673864,4.513920545099328,-87.60814544902351,75.84354427967497,31.26567379541101,-17.677687948512144,-34.100210687261274,88.3724120026014,1.7902182960393738,-123.11611498528414,-9.682494471792253,-45.50422536957372,-20.59593472639269,-76.11811019702951
58.174760964224596,80.21107525894311,-3.6888163966586447,-83.76418856315505,-181.8605796728485,6.654291376153136,-86.38473683240878,65.98479698984397,37.35148816662576,-22.766109044205102,-33.60253849615137,69.94999063687789,4.214542622161183,-128.39796129439463,-21.276845991477195,-50.14596347517448,-29.74419384819172,-84.10292994849341
62.42344474769393,78.99261178459585,-10.0936680358989,-82.07933406425475,-198.47199837065335,2.056057754291569,-71.59189801063695,55.25116228328111,39.14167207577259,-29.80920467072063,-24.31761671707409,64.22820374394266,-13.86631524740136,-123.62472080880677,-11.68148973141292,-63.58415055572381,-35.86578175690565,-70.80327189440436
56.0358153074716,81.48761621671066,-5.5577009388695515,-87.14377948208403,-216.1667252259564,-9.573613473171672,-59.24538896899216,59.46287091437873,36.44104577102427,-28.84596796175294,-23.62858932309148,60.85546261682463,-26.865862820134197,-126.96054361596833,-6.189990401608583,-65.50645991565989,-53.12108186645248,-66.2001979796672
48.87495486601159,77.14937077954664,-5.2173349979745325,-93.58673349276607,-222.2495082131106,5.554995530671672,-69.26727359262848,52.154345828168054,26.027037967236613,-33.64622169690698,-25.969029507765782,60.80847039202141,-13.103917633875108,-128.8347753092836,-18.669956698925766,-73.19879080444656,-70.57243644993133,-68.24302691870301
42.50303275960742,80.72450292545065,-14.736189175270411,-100.33433572971134,-221.79879257148906,15.507943069924757,-78.12191574534195,36.74327230119657,26.06412078184434,-35.22553394245716,-38.565672520048665,55.884096460497666,-12.717647290468369,-126.80577039303738,-25.09779357430301,-83.04828168753484,-80.89552225246649,-78.59206697140829
29.10707057087182,88.79529053541965,-17.51191794216502,-108.65650156050313,-207.09984798522723,-18.094123920172557,-86.68810872742816,31.588963890585596,20.63421324447428,-35.146507392144045,-43.35189696013047,49.59813271117598,-22.581841201128537,-134.64306231838864,-39.634081648875295,-83.43413157348576,-89.36386260772841,-90.89968702718491
18.745451912013245,90.91264387490278,-14.715885136267389,-112.88943637395349,-209.30571300716787,-13.316223273019684,-95.06337839684713,32.687105901901305,13.936726988881631,-33.21390407023033,-49.995877631477455,51.32582898926664,-32.9305632770592,-130.0804727401439,-49.09523343292725,-72.89193932464057,-86.40700249732028,-102.72456081861064
13.175648360852144,95.4754063287123,-29.199473969577713,-104.63491802828061,-196.6778297718897,6.4039248484118225,-95.92325693383765,21.482374810131006,4.506922776514362,-34.50600258947496,-51.07568278168931,55.8914252860946,-37.90418800709296,-110.48102365520839,-41.07892234402208,-75.25065304049988,-77.59143482877971,-99.32048199268627
9.07692518525068,116.54655909947813,-22.777981537022022,-104.79203526193177,-189.0409154223838,5.616697423395298,-65.43911312066857,22.77947837940033,11.485842518338412,-27.98755303620022,-41.22019114360967,55.77536914697872,-36.33066252659161,-86.00089588016549,-28.085544387292078,-75.66674994584712,-61.15932027712491,-84.7891831688896
14.16386877059692,124.63371981524836,-18.498109880696205,-96.17334666654794,-172.62541273767442,28.463528721814093,-84.66672346623349,29.546695979881182,20.90855212611006,-23.13142950516869,-32.63667260139036,58.98568201877638,-30.260640669657974,-71.38617919341007,-28.572616443235567,-69.0624751955489,-48.43895506513705,-74.07240122214193
12.713204658761043,130.77245644888475,-13.234288980734622,-83.75970604454767,-155.34177112303837,20.54919218937126,-70.30388279400638,39.146900408958444,24.47426427778118,-13.39463527731158,-27.180674504711362,62.59271158632569,-15.397024597137023,-66.73429786509872,-20.469691844672596,-63.348547011446456,-37.86781219378318,-63.06860879493994
20.740421037356775,131.74029478454747,-16.458800010273894,-74.48510991440202,-142.8543003881301,13.124298250273416,-74.89029759735307,51.57971880430973,27.45661530206213,-10.007880903409474,-19.28575387578246,63.37382537407302,-13.224361471002272,-63.451133162833486,-15.593558252708641,-60.77152804399478,-31.30138416635738,-55.78186606915651
21.15502960126865,127.24448039310738,-13.71778094749617,-60.04893498071097,-123.54187891528308,1.2084345183706455,-57.60487011885358,65.08693458026043,26.925989064845435,-7.3070864551890775,-14.420790305821136,69.43468176204325,-16.027535930813738,-48.45030655172706,-10.526394262850355,-39.84714318975253,-17.11839407638597,-43.325406665703525
37.19918645424517,140.82073476071878,-27.76497233017232,-64.67057281504691,-92.71707339781081,-0.7449224155601273,-38.17429701032842,77.12906508074707,39.97260381180544,-7.636105264599195,-8.97249150254603,62.22036902478904,-10.91557434703224,-34.91536822696016,8.794316907941251,-17.47060207653784,-0.2993797108654377,-40.05500153949259
45.33698822660552,156.6486971864344,-41.60741845753367,-76.24072282737839,-77.91949375024087,7.362014838897675,-22.26255608242797,65.34210251516681,45.79547221448717,3.1653688447099952,-15.734063487013856,50.9107665556442,-3.552475857411574,-27.533642025971837,11.215560158185218,-7.607374753041203,13.003229245085947,-63.64678004680273
29.16154495920778,152.07195204540056,-32.4903613943876,-89.58377093205073,-62.25446733968103,9.708820541753523,-14.557043710880734,40.07737842943722,17.343509130590874,12.108791707337028,-20.838147216474937,50.545211056412036,3.4251480182263876,-19.957124597068642,2.9872367543645675,-13.480572254526363,18.687816482818846,-80.31123779407338
27.73556180661317,132.85247280683114,-3.636006957833146,-91.12552414581711,-57.148055651226784,19.28410071937824,-18.47560185256117,33.26858162059757,41.14157871724552,4.057150282972174,-26.140277831891574,46.76805234115839,4.353293301932176,-5.154206274598565,-7.003991063209388,-15.266071127567063,19.586465926551732,-90.1461015974893
-3.766255799074102,134.63548799589336,23.862067266415508,-90.63197594957727,-49.70953263270529,3.665610573580203,-32.553181902982246,40.13008757714597,37.598726643903376,3.03418672678467,-22.265348410444428,45.73175855310003,-1.0608709787946928,-0.8983416816596872,-9.773801227786317,-26.73400249634873,29.175955709977785,-82.70205781175174
-37.316528876983156,129.49102377237446,36.234608427463584,-90.34946023950263,-40.52493042265685,3.77206640717064,-40.383097709492844,52.458248180221055,1.1485630716958646,11.090653055265289,-13.607991476216728,39.42841843228999,9.155786064657473,-2.208730712890386,-4.931750621967058,-26.693018274183146,37.49520672274288,-66.7683631806428
-37.56354817893548,134.5093108872252,37.19309293051775,-84.41870474059814,-33.59829242277915,7.298714322974082,-28.48839226937647,80.50672581787474,13.237742076579622,3.030793172824808,-15.10987361542785,48.561489263911255,28.85096308259819,-4.006914679261129,5.178189426546011,-4.303482380811701,34.09485140295791,-33.45821919018908
-57.1452282142116,143.44036653703498,46.75783310547595,-82.80097721471854,-39.96501000058085,11.706572534205206,-16.693395171979496,88.14175426617146,2.185578638093155,-4.250661634230699,-6.3605576553573115,58.67763486475071,30.68062585050356,-7.0738988901699,14.696371318732721,4.886823349131749,20.732739821247435,-3.670433918052801
-72.03815703010098,168.5891648646793,48.22982386832696,-90.08635574375455,-34.917732635441894,16.507469815860205,-1.2869181035054922,76.1441913735889,-9.839526555671373,-8.01935102121568,-17.63397177450729,90.18732531021686,52.24313388805604,-10.43284935699338,4.384039524735535,10.252686395089334,12.350516954872674,-0.647597209134787
-62.41820471061721,198.0415467901032,54.500347840679694,-94.8490349668024,-2.928928717723707,29.61179853797145,10.406904872632282,42.462819185801195,-13.852970304714415,-3.294785244813456,-19.046874495857992,131.46928499841778,78.889952114431,1.346412989587904,6.95635883200328,-7.640130056950749,21.546041884693366,0.9036017742389006
-6.019796722397615,193.4180920318999,46.13596767664327,-107.44087144527589,32.270530146029984,32.074070402540684,30.302516484365654,3.7967048938198857,-15.030524302836714,18.907494156035586,-5.716404141686279,127.93282582902283,91.5779433466178,22.404678972221873,16.26071611296087,-31.799516504649198,40.7020212340431,-0.5794010010471595
49.890331915717816,202.57115130920147,33.586506116629906,-136.84649920134615,48.60996190426016,44.69549514951305,51.85704828255122,-5.283718436021225,-0.9695695981363883,49.01697638439083,7.611096817381476,93.54298653623032,86.01028520889648,51.960940567375104,16.281069244943755,-14.373508120511701,61.81053030608658,14.141932581638187
115.76117233822593,208.41066472872745,27.204119360501842,-163.24150471221995,72.84756220041876,67.9644703085876,63.7424039886252,3.9905019676177815,27.25574203515125,60.56836296547273,36.170213693818084,64.14013302045413,86.79684231077896,80.54264911063532,19.224465865298267,21.980981178942947,76.4730129792504,50.829375832978286
162.88096392003268,201.9521515733046,17.41877542458977,-162.11388872298244,95.60817011064043,96.60758442520722,78.45897709026097,16.189036284622453,58.61016673274765,68.01494991159683,58.866853969404346,34.6460315808548,117.47323990025652,96.23581023648904,29.387679623885145,43.76703815051273,86.1543443264706,81.06449618333828
200.62446704263232,192.47311548483103,26.399198288141157,-160.61258233460902,102.92671787790667,87.8508514718599,98.54607249880954,31.70210923788272,104.42208051918637,66.47380206817886,67.1071173082139,20.881198585073903,130.0896331192228,102.751665386036,41.49702870843685,46.68742387318227,88.8037201336236,97.32762046170097
206.04173279363604,171.37968086556748,31.39154150356181,-147.2140374362122,52.02911104223308,89.74198136172001,107.69505195622975,38.615071341131895,128.2652218880519,59.65586681720693,61.18395912231732,12.493869898633434,76.30554174153636,115.61803953967222,53.40388217536662,42.7537522451658,80.80781163556594,110.75170672381617
166.8275090006487,141.2109419951992,45.677654396355805,-125.62929935667388,43.209850787542166,77.76898068523805,106.1990934824745,42.201036832487134,104.84630911931362,50.783804281710836,50.86313697433234,21.59355565982864,59.63826698945803,105.5378515544871,66.18231780949745,38.020525434732896,72.03005744844931,118.30934343297127
132.88452743639988,104.1153500307713,80.0002743412926,-102.98742043639547,9.378077759901473,76.93232789156707,107.04688156721801,32.9868030666653,101.25628010822274,34.291079464994866,40.05094535002772,38.41442644847794,36.92317989137028,103.66415767411195,56.49198179343323,29.26477092687753,59.73604692166028,122.05132415519742
93.86069813612126,84.70262457159129,99.78893622087074,-113.6639487808401,0.7298843053982011,75.70850425275324,82.7967963537546,19.95648258733231,99.33086310929853,15.841799042583006,23.278537000185693,26.237110995330625,20.46524334987899,96.71573828302685,44.05958728332065,17.951098583460773,45.00002046733289,110.7469923243431
48.09547442261173,80.72659529192781,122.03645029424453,-111.56444107499911,2.811944333121687,64.2341703023106,81.78962424620212,6.527699485772082,79.83154881616827,12.135395955666715,10.506988933485868,36.820145228118825,19.93265675330084,97.7789591938719,27.322463809255822,10.329358611434674,36.51352142723496,101.09580751675563
25.960053314877882,67.38214293469191,119.78963200916449,-88.68095932504706,-5.6651047766139015,39.48202612357544,91.23240609832148,-12.768773324577168,62.58292166099733,7.839566091077894,1.8339477263996171,52.19443345486733,-21.706621552353653,107.34233304122537,25.421385698301812,1.2234569339970633,33.202318342424235,92.21883850772876
5.383430843839477,52.38416519762703,128.59623844218754,-66.69350544336928,-3.1188726939602844,39.53867821469554,92.47271801567277,-34.02701625889168,60.76883755201497,-0.9520372708470113,-1.275730349521087,61.129259108293304,-25.838036687324127,110.7574177692422,23.414580029340733,-13.468453833269473,31.06244678788768,85.87391546538699
-40.58827795153546,35.146641820260825,122.4796380356248,-49.50835980011621,-3.416723983063335,50.04852452496802,87.36626109592898,-61.64201358210387,23.314357331609198,-3.2041247223064655,-3.9002562646060017,51.31966575919343,-28.594882944165818,119.35272498366895,16.711998576357878,-35.113792559649966,22.281289744897535,78.35003752655007
-56.38816104557587,17.427328738330175,129.17494370099638,-35.07466805805768,8.871303357438094,53.140282364812904,88.02279863643697,-93.66099194742392,32.935643932403856,-17.47170014096548,-6.234952619426355,45.91045216333838,2.8359054215957755,103.92879869399714,8.047928050042795,-58.43923975388218,14.573810189475243,71.79567068065006
-87.232087112693,9.089565242434134,131.10406408496672,-32.47454599007571,2.0064871126967034,49.00934908698419,69.05152114793154,-112.21296143032649,8.576828339872378,-27.445952107900087,-12.088477021548186,51.44459701386711,1.2658637555954115,97.98244644093279,-16.152182825328318,-75.24173145341626,-0.946845366156051,49.41368182097216
-120.62019273505595,3.98081266203053,130.12278507573413,-16.805203839730552,-2.8193957590190877,40.878510226057486,47.8357087092345,-125.01325466887738,-8.550469367142782,-38.888716319794945,-19.800652238184842,63.91803908776209,-22.75791594186481,100.73260316325937,-26.591132594312796,-90.5019861191804,-16.272741954220134,35.716164473644774
-138.3884573627972,-7.762469873956434,121.25083752795291,2.1676620478018123,8.358762695556678,12.439001657754375,39.70782822143772,-133.03881447815533,-24.89160767914882,-39.78811752722896,-18.336156577942777,60.283454122986036,-25.09408356015153,94.50340879056436,-38.79661752109454,-103.145929612211,-24.372522542647935,19.374824165585586
-162.8031561449818,-9.538583228689703,118.35588276961238,10.479083829691092,15.1305494140898,-12.675926515549229,21.62085406883975,-122.1296278220918,-34.0011245891249,-43.03500189608523,-20.19518230760584,53.724536018115955,-12.18800288173297,85.54514349152984,-51.889828331124384,-119.52146313286228,-26.613396231661746,9.178863612923681
-199.9193701596221,-24.00424686479505,119.38735699069512,17.504304561933168,5.972408949010074,-23.821504972282256,6.465808368618466,-113.28246163489625,-74.06314635513557,-37.98469782689632,-22.057366369708298,47.07325507962375,-14.99713497195944,69.46338755630501,-50.53860482824819,-128.59339704511794,-25.241492211780383,-6.395321599758265
-215.94781284142346,-16.1004623815127,111.06404267489964,20.313702725457233,3.0527092130288764,-23.24378728082005,-23.726133272103816,-97.220176604967,-65.77953869599611,-48.856344494578906,-21.090632983352165,35.05598635102521,-10.474215118090832,55.82877182300369,-49.68468070083675,-136.80726394840107,-25.82330322042621,-23.246094546923388
-210.00984596295731,-14.636399485162357,80.98362830801129,11.192437895330599,-0.171554717556063,-43.16975427413513,-35.55582454284788,-87.41987977344172,-56.123626013102864,-56.99733064362022,-26.572464722779817,7.223242134407855,-0.7676800961448613,31.945956015600494,-53.72274797620338,-143.77254125068862,-28.749462108305856,-44.303172571328616
-229.56740219573902,-35.92104270166301,87.83862349369616,5.961195062551326,7.139692496233735,-59.477871621560666,-26.093334649148424,-75.19036379766267,-71.07231910839059,-60.356858287984046,-28.34645245928012,-11.912996485811064,24.278904025477406,8.459793333143608,-50.15270375485565,-136.20787117535164,-27.47690248102254,-52.76940638473836
-234.28809502087648,-25.266204538593044,76.15962588880514,2.76461798018741,-19.643067933051356,-50.39039151338429,-30.29993654929438,-67.66096761418393,-62.96859311046195,-60.98575193935005,-31.19781990192044,-25.477890739049457,3.727131789112576,1.6792794402564155,-45.12706747543365,-128.27370736329044,-29.818246019284075,-57.82460235688151
-229.2503759901111,-39.50884131479029,67.6268341344809,3.3606962009582304,-5.5186210955774015,-69.22836893443163,-38.40965878856355,-62.39056377081865,-65.30900546964821,-60.73951801888936,-36.59142620907002,-35.131737272152975,-10.566716988646867,13.655373441720364,-51.73205196354397,-126.90381707835505,-28.937453633614165,-60.24999789895987
-250.29487346574945,-40.46493228260731,68.97879892266452,9.409770640968574,-1.0736041187160907,-68.3347560749102,-70.83277218408925,-54.69188872212814,-82.68342271066639,-57.07906202192817,-34.077884879941955,-38.53086657247877,-19.96983546969824,6.789985413267988,-57.662851322236584,-124.09031972060454,-21.709480592571236,-67.36989562808247
-229.1590533001424,-18.857151386898565,56.38718460814655,-14.830723463216103,-10.800199250065624,-76.03022735588269,-63.01731420736651,-48.666867265275755,-73.19662711139493,-48.24654874897588,-22.094662434781554,-62.921905247243046,-16.27896290139206,-8.760346205041415,-47.88023653158028,-125.59506243999822,-16.0446070213826,-75.76624329824816
-214.76965785292833,-32.108412228887374,68.03630690999236,-40.55157615891386,-10.674527331127294,-83.42785851622371,-57.15123289299532,-39.432903648423704,-91.14627496489436,-43.7147805170298,-10.895810656651758,-73.63647319243964,0.9941953612523271,-25.47584854998989,-40.35328823797629,-125.85158096147151,-15.360857213747035,-78.1146755592118
-198.82598201689444,-21.23360484306606,68.37887418288129,-7.30246151415308,-16.614723884887688,-71.38666281414427,-32.726207725961046,-36.95136999029005,-89.16831499369187,-37.91726509063472,3.4249922415990106,-35.322586348776696,-1.256333301453136,-20.895121139540258,-30.003853824022556,-105.52365614967681,-13.115166182793121,-53.32108216632944
-174.98046370564884,-31.643745694855326,84.07556176895757,31.009740562123127,-23.640167261500814,-82.48534544903038,-1.656288577514398,-25.694959438981137,-85.9153281213919,-38.27598714097121,5.828467661779385,26.823940530894568,-9.65144188255304,-25.97555400115698,-9.800619198228016,-88.04914564449317,-8.233302605741176,-29.901481309806755
-161.2023063556048,13.712953112440871,99.89186110312072,10.321752732582823,-8.11760691635476,-86.84056856704193,-3.1020355288829933,-12.597636425339008,-38.61317656302144,-50.35743179372284,8.717163135451372,42.97770581357311,9.500781870345952,-37.78730802252579,-4.548686811106666,-77.82263447373185,-22.199973354258297,-24.4576433205865
-155.63618043635506,16.885607820254293,115.04659588276024,-52.764401756228224,-3.738885496275067,-103.88615318796117,-7.570618112858739,-10.355162951701985,-73.04498184158524,-29.43434557828643,16.681008082583123,9.32994084746663,2.8791990177527147,-41.583964262930536,-11.611327324868766,-75.23472717814569,-34.214084051392945,-30.055819598758262
-141.0944795894556,23.28489631015767,33.83525324027687,-73.96987882916194,8.148703075049312,-105.39894323920501,-29.319874275158227,-11.350481832860307,-98.77962864688318,-14.472155965220045,8.332974095593709,-53.02539835192033,1.6366110871977888,-37.26777157719286,-27.765858089350036,-74.52357769222051,-38.22085932537691,-47.08658851103736
-112.30383025561866,20.508113860735037,4.59999991247831,-85.42385406353402,17.974777719045264,-54.17127066229277,-78.50601777033985,-22.32221430728788,-52.24188006217496,-21.97500791045153,-6.65880486775211,-91.74387770580128,8.019123747434996,-29.623872655521012,-45.10201799680988,-70.31795811536725,-49.55256915674364,-61.97546806137505
-101.68673523285472,23.49672299440944,16.403215631333055,-98.35674038154487,39.50915673181204,-34.091065309394125,-99.17097324185731,-24.813275145973954,-27.67140712669384,-21.76664438276064,-3.2939286929003035,-107.41155678653652,6.401471420298245,-3.4175803497460713,-54.73296155169856,-66.81708648365165,-51.80271826730698,-58.02292507523676
-99.08691147352104,16.332340804646805,18.75588270963155,-99.58450974712112,43.06396326737918,12.166835020030799,-133.20972199240413,-32.4959659824145,-16.083649495670223,-17.753357545825686,-0.32266393750342104,-129.4235267275925,13.1901224688317,19.475844276736975,-70.23311645476815,-72.90773997759095,-48.97527938744454,-51.244765869329825
-131.6533217354314,-0.301598882071616,-0.060906186260197615,-58.63770855584194,38.11207323800133,43.19561699556443,-160.01629276850306,-50.54635528780757,-45.79930356349924,-15.110988163329557,-7.1201332407259885,-122.6231103922724,6.2167330554137745,39.5447556202713,-93.06734355402324,-81.94910294378596,-42.046835665830415,-57.16850465472622
-147.04151761771558,-22.987244147535264,11.711460403565411,-40.65380561448996,87.83811834472206,40.34272042010837,-158.6917423436283,-77.49977531272074,-47.3836679238222,-21.652134056969906,-25.63947017145371,-104.29583482414571,45.73608715416998,42.82415543061989,-108.29399625125467,-88.27692522443084,-46.740289428276625,-51.67260980369893
-139.3921246068807,-55.24044079497254,8.076183950734759,-39.28479916032093,46.243849382732094,54.68321116904452,-153.84563578587327,-96.46162536212262,-27.770394116567157,-36.49785235058996,-52.169658597592594,-109.40327554690013,-2.1406235392546584,53.3378991950744,-105.46367688037155,-95.11379937104246,-49.2859059588295,-53.89792530220886
-139.1744373967172,-57.60762667866024,-11.650354568513052,-21.815093216450705,24.854476135338572,45.59153667911576,-118.32893745394341,-98.54522932822658,-16.452071898653244,-49.49171313407183,-62.003267534256764,-102.3004592935641,-19.149927186604618,64.93359345811004,-102.6430407894742,-89.56877944912014,-45.19143640906893,-53.980943133619604
-123.73193024504593,-44.54230946756468,18.841423828443823,-15.588598036655668,37.04917757059888,60.04113679082496,-79.1926592548106,-110.31366058500534,-0.049543445936489405,-50.86791584756543,-47.71828533443103,-66.38566929308854,11.407593399826705,64.32982244036192,-83.132580760378,-85.02084055757464,-36.2147279380822,-36.39400327005553
-79.78321101656303,-42.021606979890244,3.2609492561125535,-17.187032205947574,72.76927284076996,41.97653495528427,-71.0074610946384,-109.0128234825534,-30.223706307897963,-18.06749448083477,-24.451637721965078,-62.988062435783775,30.937232846061548,52.893824047338086,-72.12795306923654,-76.97758060467166,-20.890923013195692,-29.360110292125537
-93.16948475284704,-17.916278029324715,6.745884934488757,-36.27824839845378,74.3967592708807,23.33187791462423,-67.69854852467628,-103.13908891821322,-82.36476353254594,16.68252612388855,1.058315756544772,-75.99420459421175,1.0594330645189096,61.77843956146417,-75.097943531489,-60.84892935124904,-0.6848971419257133,-28.1916074996513
-45.138982247998854,16.83585921617604,21.09292008938756,-44.638893465364724,87.53786294659945,20.025442433316584,-48.65996309844827,-95.03637984281836,-43.67797948026795,27.307559984467375,25.393579159895694,-60.872256072076965,5.46680621264907,64.71375168177218,-76.61257471173953,-29.70102074340231,11.70783310601053,-27.517231285932237
-8.739727700609023,41.238243819441394,37.90341751248015,-39.729597711230625,93.14938324247798,13.89295336040962,-25.610461209535526,-74.06012945333809,-11.235102846069173,33.82747555811181,35.46804062430154,-27.388077416438435,15.25258513559169,57.988773694422726,-71.39826739676904,5.528654507398784,15.798967617693016,-26.653286981086758
23.15726712873513,45.13432887929734,34.13006821971768,-35.515147773779816,105.7823792449964,11.184569967106803,11.899504593037484,-67.84759478999463,11.643547304022775,37.51185615286424,37.53182109491027,-19.780708097997255,36.95975741555631,71.77974733883643,-61.60342399698857,13.882778258371985,26.23715482583639,-16.32219633524584
42.25107486753899,44.83282037068609,30.37856251787676,-41.8587039157222,109.9093230441093,39.53749600157629,36.91656379776947,-84.99276331883985,26.618195610555368,39.4349704224816,41.54603581771792,-31.9954480105396,58.67399281688827,82.35583444650187,-45.86076179215247,6.201554054007218,42.43643441198319,-11.367840612938753
71.19827864058831,36.91556648341964,21.570594715877846,-32.783034949310725,116.4679311564261,47.58382282945928,56.96052434623492,-84.96776903099818,51.56025039695642,39.987483541099266,41.06529979167375,-35.71162883931267,80.00456951523273,86.3966572246741,-33.64300088784115,3.286283449685371,56.2911986678499,-2.512637117354366
52.869094299417156,23.726228231471055,20.596873183565265,-13.463728449657168,125.26293447703051,22.335133089075665,60.89856167244392,-81.44478158870243,30.70718260369577,48.251600139839084,41.07018363698189,-36.30049911587268,67.65010234919082,87.80850339136333,-21.434375790454745,-6.972382299623831,72.19602912058919,14.63811183183612
52.69420754560113,9.952258989853476,18.961051298720648,7.896237919627069,113.93075357313509,-3.5908265234888646,49.60974878811423,-54.892328997472504,24.509172485522143,51.62950701551918,46.0529692355682,-32.687892982953244,41.923300610047576,83.56395392616437,-16.168493219653236,-4.261414475644131,79.01792501897296,39.01027229911472
56.12262044980517,-1.2814046618890984,20.959936724016217,20.652442355921423,98.29198204440881,5.939368767227244,31.492799928145722,-48.084567575648784,36.677251700133866,52.465025583972235,44.39241125529684,-37.08109367168907,32.70732727957004,78.64351740074086,-9.837319858985254,-13.873941656567553,76.56155082925426,45.40825020858868
60.32226902147423,-8.314684745458642,25.812125194694744,38.86787018223926,90.55387372336675,-17.14166553094799,51.1774458545421,-70.00606578741765,56.37144693028174,45.191700598954405,43.21755033528452,-28.093118211704788,27.111250368966413,89.35599325134666,-13.085445155801693,-48.798210204344755,77.1317600102804,41.44945369059221
76.32849308347787,-31.3628291162794,30.978363920992656,64.30062984175098,80.95068753322087,-11.504808737599308,67.25694291635999,-111.57470054906638,58.20077977351396,51.001297823587755,41.16120355243876,-10.118623419726076,31.970996671651896,87.96653324631971,10.513577596264184,-105.32298635069893,75.45501099977749,48.03274490622937
49.06234670266292,-45.425543531743656,34.21236437372808,85.52503274871432,32.86080050683076,47.85038001259856,90.27845959016076,-142.22363648243947,23.51265399092257,58.858528919557784,38.80934259116185,2.193674791597516,11.055424925991453,99.67077758866702,34.59227340275649,-116.55247228964448,85.8869661730537,36.64217073917014
53.23202452603462,-55.288135624572504,42.252341405063774,106.54531067058204,33.394943125636814,52.621525839667946,109.98805981281464,-99.06131693546925,29.94500312285665,52.64990314978286,39.77532886907814,24.37130583527381,18.369141183411912,91.5580045418983,47.52949103992991,-60.513424921972224,80.69280005800447,55.91139388596369
65.88798462846222,-61.145989926888376,46.60189394918759,117.69360870185048,37.33760473546395,25.172309743393924,116.91306330375724,-43.70979484297536,45.368458713991515,46.24285604363764,39.371615674159976,38.054566920711544,3.0323340948776902,81.69482634859448,56.161396984043904,-5.175374487260825,72.47033201232219,73.80878467174743
52.55707495920433,-82.23774054602244,49.604621902320574,137.62281307734628,64.02503773762952,11.694900926748236,110.76061098768409,17.48316664822957,23.00498913504612,44.12968008790542,34.18020670033034,56.231893469460715,35.651416640863665,63.92872952695808,43.98396244227871,60.39960769080403,66.00476035247922,92.58058108444841
34.5287159541291,-90.53566518434084,48.33059927167277,147.87586485524062,96.07418114560548,-10.857869513856965,102.66379281080538,69.28295866913444,2.210687339992426,42.79473306687073,31.42779911131173,63.76629537842564,69.35053610336344,48.51369499118346,19.1029135803039,120.19591843744814,52.01856701925099,113.20347126789609
47.25270290517159,-100.59080565556735,47.467196155491656,162.51572823822212,119.12936091306813,-42.58360184932195,104.73226936289699,103.48633802350076,33.57228412012333,26.51515522496081,29.94252423223105,66.61485806590656,87.62539273294917,38.574682917619114,-5.688447637019216,164.25273843720288,44.086143400319145,133.9197273397471
39.84939103715392,-119.82517775983226,46.62357281709957,179.98012431664077,159.5581777340166,-64.63429501369365,96.06737814973977,120.28863530466683,22.850079308189613,25.56488238761095,30.40801029051098,67.80493842465886,102.29242731138332,37.4319635089856,-15.25302937214989,186.80853472711584,42.30511106261821,148.4793660094239
26.283876932364763,-128.21896096041007,44.62762055357981,188.2573909600634,178.29754363907747,-88.43584758755829,95.02886115976928,134.04556133121645,14.576019092284804,25.783578599072136,25.402292955104915,65.18803683904879,100.85129933593007,32.68290561698252,-17.50096250994373,202.90287610013866,41.206598779549964,154.92934515567168
8.314041259529503,-141.78802912225896,43.041640653695474,190.76578365391217,179.25377370381898,-112.62099435885766,104.74184575279992,125.42091426659425,7.773540328985708,13.694512079905522,20.98017594722527,57.88520808867852,86.71987609361031,24.0344329564809,-7.353894704868736,193.39512501973294,33.759209963050544,147.70328686876323
1.076876396279168,-146.37200237161312,45.771713760360754,183.69687952540096,186.15770182267227,-131.03724099040014,104.89359439635996,120.97763764478302,19.923390293854425,3.165118303979633,14.700239555297062,46.384719157217106,72.5935064890195,15.392747436866415,12.84454176972362,180.16089717840293,29.533362425140417,132.758427196541
-11.834074323305401,-158.9633076050106,38.55957477436301,175.2541519291109,167.17290554526855,-121.22325067873751,107.7890474351951,104.40693442353884,1.0248153224655798,0.8361600129357125,10.566474927827425,30.58889451185264,57.49545228925419,11.445308546462215,22.781693924287325,166.42318196585632,24.81801999963804,119.0793928088816
6.7888325065379505,-162.7647810291507,27.069131850969057,161.1408774908382,156.1866195909982,-105.93322046016714,103.46717308532371,80.29877116139482,19.63355574112053,-8.331618297719803,2.0358373453069127,18.896286030412895,50.605376913912906,17.07488720627729,8.687980665043732,157.6510985929085,15.60917209234822,96.41223633368983
-4.285761318108328,-160.90142500180326,16.866630022912616,141.84555597045028,139.42909984824993,-88.97574598347289,86.16621498651082,53.438436999585534,-5.69693954624451,-1.388611125729173,-0.24695552100604523,0.857505866359185,44.89175580968356,19.097568662704866,-13.51822295461114,139.58690433368682,10.500655497474508,72.76500868652454
3.4780860798231714,-165.38508319456892,-3.7671107048611105,123.52082981894237,120.31836316358448,-89.88231932835885,78.93344271465531,32.71285318064896,-10.610218206543681,1.3524082705697564,-2.239001635696587,-30.65646642906391,41.81928493098078,19.759357657324436,-29.87169369852746,110.37539084134065,7.929901068433786,45.989356831585674
11.134818020775072,-163.1295468579546,-23.8946792735982,101.38166828519721,80.7877226172762,-68.7108691908283,52.37391200497094,13.239206533266596,-9.852600045125063,-0.20618100977653775,-5.014511706233968,-59.434447064513265,24.688317918975855,14.177240760583011,-38.51676528111128,77.34117856682406,8.385151362170223,14.327559878738438
25.227547595483088,-161.26374611466684,-37.26624044213716,81.3853856880339,47.88836669812304,-60.71578464762962,49.847687647760516,0.09578026851812638,-4.79129712212581,-3.036952007353383,-6.034359742249592,-78.05444440162512,15.862302069695637,3.4253238599414573,-35.644613948608104,53.473037986326965,7.178787998566683,-15.774851527941593
30.717026634082472,-157.4437968618933,-43.10079634138265,67.63379292622483,20.057765923049217,-55.05700203500008,40.29962915305687,-5.9360761302334595,8.675309267243392,-6.163290102694077,-8.130595086281023,-96.57519772130263,13.876193939357456,-12.984813517807652,-28.188764863709814,26.66170135361414,4.213105806093218,-38.848922596253786
41.080066116314185,-149.03282828432788,-40.910325884629515,55.43949793903112,-13.544094173061865,-28.589583183739464,29.979845536602376,-12.473572039228753,20.976751495182622,0.5712471264501175,-11.498507661325608,-103.47308107398393,6.620254523916351,-19.03743596556565,-20.934270580672038,8.724048163472931,-0.41428535097777797,-50.20695871524636
62.95743396521412,-132.90566734876285,-49.9336746998877,45.58393579539754,-41.49126251921834,-9.438904409891439,21.91573324011052,-16.684531892647946,34.35914574716726,4.568848905981661,-7.641848022565817,-105.58411891868603,-3.854884480667984,-23.32656047880735,-12.513743880047578,-6.003776741547265,-3.0900972730712724,-60.49352854793692
69.10266075986877,-132.4023750910298,-61.381919855361176,43.73142229726335,-58.21725121085922,-3.659693841008437,34.75992006470451,-28.62759512202554,17.474342828950657,14.032803393259197,-6.814652278466983,-105.64270583306534,-25.166709004735168,-11.203663473803289,-4.97781648871409,-14.396431141361314,-2.251854477682688,-55.54813265328815
101.41095532305437,-140.88207285647923,-52.208110882252214,42.069498890244525,-84.23018726339609,1.7365784621902094,46.24643372446898,-31.01722726792882,46.495362642807166,11.775386617512888,-8.43094677268595,-99.44953201312995,-44.61989611400685,-5.813768063964716,1.8690096572863837,-18.699747823407872,-6.981775195920548,-56.07408254022178
102.75257595636526,-127.2894335592402,-64.50301218183323,41.574897482946824,-106.63924842047493,22.375199981615445,36.941369529493144,-29.517456204460615,42.22175771490198,13.226560149630416,-7.31484339878606,-95.59844676757079,-49.226150471722136,-14.481344416733393,10.566019959182519,-23.69866018398343,-6.342240833630367,-63.24313925121761
67.46340776486122,-134.20305288271678,-60.57101634550868,37.65785272403648,-129.44839889157353,26.126821648410278,29.79427525042245,-30.866538406533788,9.927022964192478,9.694824110877699,-9.521093450295393,-99.75356236416565,-46.79827594749446,-35.93698222009709,10.566364018676836,-32.22494624979146,-13.61475211986236,-80.96147796741734
56.87254312855981,-149.51317886764548,-71.4675666048098,21.626968191021888,-154.02484090859704,15.530590339776424,34.570897095881264,-37.79875652727705,-3.122521262900218,-7.413663240797485,-17.686426549193445,-114.25862310004574,-67.02441050580421,-50.746931848384264,12.51492223216755,-36.46568987762928,-25.283678115464937,-100.9280536341641
43.7335014692744,-158.27797208591312,-76.78247843259932,4.420047339131997,-162.79017173034038,15.293957964048083,41.79839994835148,-50.411627831380336,-18.997552949590244,-22.96191236321851,-24.388824267815647,-120.55861212954527,-75.62687238112152,-61.450435263427735,20.220534177922474,-39.252668182130506,-37.54041416565706,-109.17766943221777
32.73388040611411,-190.18516753871674,-68.99639002090981,1.5648016219881598,-175.4712415981887,28.05372500479971,35.26555823418343,-47.70859138774622,-52.63973787567881,-29.03960601937183,-26.30789240305217,-116.89563923348541,-72.80116190700637,-72.44223125751653,28.702843622765783,-43.32000020463322,-43.93959600942282,-109.81180753130951
31.19803355079273,-169.745101507008,-80.33664056057991,-12.13434082614647,-191.67740220241566,34.37604035219671,42.12117675487769,-44.14283969736687,-49.067802704846606,-31.99445653436328,-27.83819731930968,-122.11759278448638,-83.2548718048703,-76.30047155603314,39.71987901700027,-39.487560448246114,-40.77027536541876,-104.68581906180907
36.48922187676093,-186.99796747538355,-68.71302951630011,-2.9853401399130988,-186.21293485905755,28.30381854958197,52.69708618134819,-40.202502280149126,-36.40721378375794,-43.35003593345561,-26.928893591005252,-115.52097194668161,-65.28833091301611,-94.31468271034123,45.65452618905695,-31.46604497341999,-42.09521179902139,-100.24496586761917
36.98619097598719,-168.50488990099487,-74.55614706295607,12.996048351825763,-174.41007840451647,46.45874619650703,36.91464355424199,-32.17641979580242,-36.24037170409131,-48.94593003511887,-27.19328374792695,-80.69921214906562,-44.585707991328654,-109.29724063299366,51.09688874017962,-20.427048564873722,-50.74652379536708,-93.1687326721203
36.5952636968567,-176.47358259432656,-52.55308761578789,12.567391195048117,-176.77692704668016,53.48875261424383,16.453802412720172,-23.677757496652955,-31.86784577608025,-59.23147460706808,-28.436017455752605,-60.328677479373624,-62.94469797850836,-103.66988902041639,45.79309385814521,-9.690636375038947,-55.49361419888631,-89.12111317390382
35.31644972726353,-167.44607321028303,-48.896247987379624,4.029699754521431,-174.95378938353954,46.464133910572535,12.896852955789171,-13.827418795612047,-36.375818932747094,-59.94859658987008,-27.92264211780409,-52.74911407552164,-65.2865164958196,-99.99170129917924,35.602795782954566,0.2552006998019367,-54.87165872066659,-88.39492225717532
33.63804377944712,-154.99649873195892,-40.148055977841345,2.0317333680211576,-190.03469585508338,44.9164633512409,14.524790577518047,-2.6252211054158536,-16.853681417564957,-66.4295176186899,-30.53600783547049,-45.655570690672235,-68.01784370403456,-105.88011499816851,24.92078243342084,15.758513237586204,-64.31062089287005,-87.76729308591233
32.927256436998164,-136.68311629654218,-32.16826096730055,4.522772785292055,-188.52299488910447,60.271718572366474,-7.95978778300514,9.050104024798522,0.33092530328237707,-64.61147899617201,-28.463457451445795,-38.65733689728314,-67.81849488447472,-103.3662379064624,15.993371086987164,28.030401629546013,-64.86493843186167,-82.35517421790979
31.035615742737047,-96.78272040462534,-28.86345691391057,3.6902871767164385,-192.0009950161444,72.90071253442112,-4.84917845351783,16.99946726659985,5.802803540952114,-49.513891337082086,-21.119005536411137,-26.090181066608082,-66.54414405907818,-95.77056319557595,18.098235821216598,37.26647776533309,-62.98006015183583,-64.73641001420481
38.51015196333083,-90.86224639854318,-10.116432933767685,6.07742871601036,-175.565915104466,65.71335602812732,0.1256968070978104,24.934061488221346,-7.56711942910324,-21.527340486355158,-15.53396935408357,-11.7626693834954,-60.28865699399535,-96.86296014209039,25.376100376631662,46.9827159789672,-53.77313563456881,-48.97354480229707
48.80778675588057,-76.63556508836572,-12.744439734489688,9.535806022430137,-163.24149649589938,65.27256618390804,-11.10193948603775,32.56111731922785,-5.012748924409359,-6.238108822858763,-12.391912031475545,-7.393642265869794,-58.622665920602024,-91.99489345253237,27.280116230724744,46.827690664136675,-46.52168538115464,-42.586051562069784
48.84236901961186,-55.176575562957,-17.118553177918702,15.04207083364853,-158.34803434718543,60.83599982182904,-2.594138983021324,24.841551600399228,13.95413978207582,-11.654085143683306,-5.930984833565552,-4.779758692512324,-57.347059964550816,-91.22523382057116,35.23642553969259,38.071246337974586,-36.831144860893936,-34.2454567883072
58.04777087682645,-42.30548791927005,-15.32877676498218,18.49466795172951,-160.006535812298,68.71250414260223,-12.925813330876366,29.022087495011434,33.024636892536364,-14.727996596253758,-3.963763910175034,4.575297758124648,-52.848672887485975,-88.88995345208731,37.428627343290415,29.112241491241008,-31.244615026446247,-26.78365678927434
63.044859455384206,-34.7992457804379,-12.746565349179559,24.483576722633646,-139.2125738438822,56.57736807371662,-11.627855979723776,28.79410078281802,47.41344267123865,-13.70195746774659,-1.5096604794517683,7.780800324286872,-34.09234834979038,-86.55169496071818,34.14987939052472,21.025202953426284,-31.812939382135124,-25.278673530838986
57.38819707178844,-18.790092566688045,-19.821574839426702,29.200206635047888,-126.7282534886117,47.57547322514633,3.838722047395173,20.837451282569184,66.10499541784165,-16.779171406789334,-5.111698145102352,3.7626104346964553,-16.99646440544804,-95.63653033444194,41.12326120694982,17.03312659994758,-30.137581854297146,-35.980419643768684
46.35127045673022,-10.586507502162078,-23.272628736961146,22.390552250473284,-133.00286517689375,75.98467984750629,-17.79650879603774,22.63310195123021,58.33702982825023,-9.213273077355964,-11.74244105016048,-2.498629232730778,-7.322992225341908,-98.2732071424216,44.579213541117156,8.835393652954025,-26.999832585511676,-48.73230535438587
30.0317016822506,-13.410827369344133,-9.720891130390674,28.078470973451882,-117.11772359341816,70.31951188013088,-10.614693412391425,18.36073074083471,36.31668285908211,3.3316351359019034,-8.315705201055307,3.6458413619594907,-10.247954614395216,-83.62182788904988,47.057018408280925,7.760589710816779,-21.52079881236786,-48.2995365032802
39.58226973607612,-9.58662793886731,-9.049903202594212,32.3966132267896,-96.748783337378,54.799074865115585,-2.253095096795086,13.977695935743142,57.0759907687621,0.054501008880318835,-13.581729013290474,9.793589056970376,-2.8219432807302063,-85.86271097049631,53.04911121743935,5.410435400963128,-21.122494399161226,-55.873654275026055
40.04145907636439,-2.238579653158638,-14.912182646595284,24.407357973214292,-83.81018846208603,35.77110418728073,13.147624564410577,8.605318195461713,56.94201957230042,-0.09902765186157403,-15.137930949856116,5.592993779157588,-4.967295907784173,-85.1714422364721,55.231339348881306,8.6212572809258,-18.187639989986472,-61.78635242282907
45.56959299728355,5.118019415750524,-35.706563910146386,21.982114001772914,-60.039837756157475,30.13036748954515,9.219746759706062,1.3649222717038505,43.336666675376804,7.461008865440679,-16.988228999171067,3.1537159629270306,5.191164553143043,-82.72001949887228,48.6233344219218,9.580719289082227,-8.419318205186956,-65.64680865689114
58.6080615328117,15.803915688086533,-60.300331302455014,8.909735433951163,-39.988627470404744,24.98601804214971,-0.9507231063927932,-7.645585680005716,46.631394998402286,5.742209319046065,-18.64428431848663,-10.707938646657219,13.297595517977193,-69.81700674869231,20.529765019191572,12.390727997340317,-7.9310782203335055,-66.67356857411363
67.63319345315921,24.6436342258327,-58.12687663481339,5.405410264779341,-22.289239343393362,28.248304190262754,-12.285716940610477,-15.496221125858689,51.59149942267285,5.389312455807911,-13.562977428024174,-3.8624731415913303,13.687695239644768,-50.85710320756476,5.131013393385254,10.215521355398245,0.3671635118775818,-53.92877186081899
78.01610217899585,36.52044871184813,-49.108641068383356,4.144840736826978,-6.746245493897163,49.780625570143506,-20.78140422999438,-24.33519819308581,62.31850401717412,10.308672395369484,-10.728768821535411,7.674342968184064,23.06078643446206,-28.86779792290062,5.161667853606161,-1.436878711545294,15.010520927538487,-42.06088541380842
59.97111033035728,30.73130565529928,-55.218875924147994,11.182836626076117,3.3201054384841626,44.85570163850225,-8.76187310030464,-25.47071811700715,33.59677076623591,17.082312103722806,-13.559627139644947,9.546920957172695,18.95544000390675,5.330639237604586,-0.8628044810786051,-9.48005890030916,36.38960597909145,-34.878366511927155
60.37386224268258,35.792652699353624,-61.80917751845398,9.722293819932723,23.046879441999067,47.653702519656015,-7.96603026700177,-27.594056234100375,35.64210724005672,20.14378353672248,-16.293692831213917,4.587433297848456,13.38341111188959,35.5269274723028,-1.7115951945753558,-12.058247928622531,60.500433206088246,-33.25994002231368
59.10678829426966,15.278539766646489,-45.73491626547781,5.62270139307072,36.808955718326956,47.04160363514419,-14.780682418698674,-27.579897778000024,21.188056430334484,25.450251178179215,-9.16513843012937,-3.2000559899795036,16.207986649125562,49.70907014233738,-9.005808725571445,-15.421268908685029,67.03017538208329,-26.56071753297109
57.73233303825681,23.58471395530671,-47.91493755482819,-1.213576080389032,79.66558157544947,32.374665924893705,-35.06543876763462,-21.32634713780729,19.14119552145649,26.26337240754632,-5.064731665500484,-8.151302905263293,29.284520845166206,68.77573020781624,-29.288348700612318,-13.123440757042506,75.80333726669633,-17.71023684142579
65.91852942268804,33.85568079507594,-50.28280914277501,-0.1418247886665185,130.13217337774486,-5.722302125906218,-36.88636465226409,-32.17333034709949,19.442660349779757,28.83328308298485,4.503805286044834,-3.4301724325973524,32.300062972575866,84.52356508116608,-43.711107999256235,-17.76234380159206,84.7690905808291,2.959812122693009
76.34095968739317,32.41973834801435,-44.24489696700631,-1.9043780124846208,154.71224568288386,-1.0374041270810324,-64.97085281423927,-44.690647384195984,22.09233104196082,25.445061194765728,12.997458671746632,2.076572147329962,37.754665073971196,95.29230163015916,-59.69591330487465,-29.33771204147741,78.3998396363638,16.992309374789762
81.8705177546323,31.582140558863614,-30.387391914291584,-12.263026111701741,163.56232277277314,4.827108355259178,-59.84548850226254,-48.03800891447411,15.566471537633698,24.39965302527817,20.709256896368956,10.126858828105341,57.46477712905285,115.24222135811632,-82.90675370839121,-29.294311067079697,67.92621026729609,18.820955445854146
86.80404948603821,54.97643563284316,-49.824444403235375,-20.28008753311188,169.47568747269455,20.172086244991362,-64.96811615704391,-69.0710103255669,11.974516137121494,18.47042302733234,17.482850461129335,23.748163556831557,47.09365069775409,130.50583496670734,-81.8976788113216,-40.09315961767039,44.94962327452183,19.38360747978991
75.1255872946737,54.75070180394712,-45.328857914475876,-31.52204028342068,162.97965712477156,19.41114204004137,-82.97564578912495,-73.51149884432851,-4.113586229601417,13.907502594071513,7.517577904904766,35.71389663122714,23.438284877908245,122.13745119514749,-72.87971721273559,-46.79236432857472,19.333497626407564,4.422423908550201
72.81198852810067,44.186757858240355,-25.494750180864216,-45.402926045569586,120.44117576285126,-7.123902591916277,-57.12908222824211,-59.699004219181184,0.017376709616954145,15.105524810778657,-1.9598321027396972,32.93800074212629,-20.33749207493031,120.8991689689994,-60.540286047167655,-43.5322041230121,-13.512092447718128,-8.874646549687625
75.95683891817957,57.07454266088642,-45.20600518549492,-57.82110899582807,84.82976498538625,4.435049995796504,-52.956921671912475,-44.03973560181893,5.909958954746312,10.638567572818426,-10.94932352414955,24.405064394200174,-39.70187825279954,100.22799416502592,-32.67201535533455,-35.5859428490712,-48.11832463370685,-3.9056039357502144
50.18450634921533,68.316371859034,-42.15721620386368,-67.11639779279696,76.65366475872139,20.884301535858594,-43.21280780459047,-36.39683120839613,-9.971490313212986,14.96000858625481,-22.087599213594924,26.32634515201167,-28.697876691804403,101.04243149201356,-26.77532695214142,-27.640900566113565,-65.1489766147867,-4.596413044754975
54.089524618442354,64.14285248903626,-37.73565731259999,-68.112923279219,66.81098149517756,14.48898512397615,-23.697611520648415,-48.48892416024692,3.838520289505766,12.444640232713398,-28.929192147580423,25.02982814088851,-14.279146374349722,68.75171620741494,-28.299069307450193,-17.06006958700444,-85.69812953924931,-6.454639166806118
52.124363569561986,67.30857939217822,-30.867319910168497,-66.37716840458874,81.08346985978065,-16.0205205183207,-2.028790737878782,-58.635698493403,17.16360927457015,9.440245030722505,-31.767019376780866,27.351619718336806,14.687174916697874,25.133436792798534,-26.989033720810937,-8.433117878163722,-91.89442524688675,-4.108931085827841
42.238095706871405,70.58721365361177,-24.286844874384776,-55.07308368820779,107.55699499483826,-47.89003441238388,-6.331929207722834,-58.92657785541621,11.155691001795516,12.001630854181228,-29.429131908137478,39.73719084991518,38.37644838008849,-15.261490555025492,-30.364722582336373,1.6582182769235887,-90.08562411186665,-1.660741815060529
13.199964018882149,86.3816140807877,-10.963096751147539,-42.599227568555825,108.82874993088812,-77.40863658885134,3.3348338474651458,-60.49424369331882,4.760223365827482,14.855306269463346,-23.282682109961915,49.686406254499886,39.01485042172477,-34.26881270540735,-40.37914960755346,9.893815387745338,-75.77947632296231,-1.0630578023494088
7.490966902125351,88.32450810348503,-5.056667453037981,-30.908747995940296,123.27833202327608,-83.57998862540511,-3.2048985079587746,-48.49441728188211,5.789680097501382,18.97787373581653,-19.48005180073639,54.562557523911664,57.91149295686203,-46.146645635894316,-45.508563020688804,21.742743308068594,-49.366618054497394,-11.104911305595959
-9.75282882317589,87.84215956209648,3.68628830613261,-26.642364723500037,104.32310261777465,-92.47878427740538,-10.228385584960439,-43.923209476181306,-3.627452403883968,26.32251161611945,-18.02118542512965,50.459380534307485,35.592702870202494,-50.11381265642057,-49.56147903746533,21.77531210321949,-21.98003590108158,-28.270463609069346
-39.99641030926206,89.13415004079236,-1.726891604470545,-16.32330323662235,97.7646431005554,-123.34367681499535,9.999015154436037,-34.768414170394536,-16.655281044525296,26.73283698000007,-17.92945035820248,38.93943931302456,27.430312318569808,-51.24860073663752,-47.75253568139299,21.22239136936181,0.813775684225682,-39.96171073306525
-48.27842844939977,86.7319349199883,5.1688270441464965,-9.033727125692394,88.56376060226654,-125.00209010486623,16.36323931417367,-20.346122588394607,-8.00060129023866,22.357340624584705,-17.251636986839994,37.4835040413956,24.146732441031254,-51.30893287940664,-25.921231022469602,12.66221868431496,16.67102857475748,-32.01812971291369
-52.47037208075227,88.9367005847981,14.50980106343711,5.285117015662839,76.81820983114076,-125.38421869667697,10.133681634385336,6.180011924454149,-0.4178180870922681,19.93442559457636,-11.30011947280321,48.04475854832372,15.390142282918706,-50.294891919960705,-10.239713077334592,12.89214740796158,19.927572323671292,-14.986610989928412
-79.72121560526091,96.23700344877288,24.53798152714183,18.625300656576506,59.50069569334847,-108.08364424585625,4.884612081858556,24.6927997109076,-18.419176923330312,26.104835651896778,-6.324939461484902,58.318350760007675,11.707480427308534,-44.59322343115103,-3.8329066370518383,17.713112881425666,24.9390939988795,-3.2227023216647304
-81.39752706163665,91.64065329401937,29.39369617225175,29.13133294094051,40.22464735211851,-96.92893845818787,2.862002791703927,38.219935206477004,-12.882988331815259,19.969830298101922,-4.181540972681729,65.86285435182927,0.20783107723032845,-38.01266033796284,2.0885041731735985,20.093971979934718,30.53370071644096,6.203462782440969
-76.15205717464823,84.62069596729978,31.811155538582042,28.014023567473913,13.52132212668786,-84.69351279841634,17.3471506164945,49.88676998079613,-9.591050532902031,13.931956887264743,-5.846449140680952,69.79936068488527,-6.120417065404321,-40.90500324558228,18.266986212677487,24.82016402412684,28.703458461020773,17.19832214868741
-59.883302708159604,87.5798976601288,23.098616166586247,28.750147153387083,-12.112967761177728,-76.55331288576477,22.362941013897082,62.91631245642313,7.862981098047434,11.018618196371404,-7.608618445719245,68.27237742310282,-14.79699725494064,-50.633572410753104,37.57363588912257,24.46990660019588,27.651618712076818,27.808842819176178
-61.107444901151595,86.06513383972269,23.56868494688854,42.17971956631049,-34.139034093752656,-68.89508893883928,29.72580507753174,71.93768876331056,2.1736933181198417,7.518831424300067,-3.1202453551396427,84.13381406435018,-15.37261497611028,-58.40924956004809,54.83270022020255,17.57853512444472,27.866472069219704,46.238390125825404
-74.74640144663294,94.92058952147505,27.557011360146547,50.5290391210138,-58.22094059583938,-63.867399130305,28.79089393591661,78.90435411913136,1.2710426085483917,0.5028742010416885,-2.733000970371396,99.21932271664461,-24.449166038155884,-65.50166277131316,62.81760930596867,12.740127832634098,27.00423522472149,52.66255099124619
-102.3628152368543,110.63078179309093,25.004647991531066,58.68100023341967,-68.73336533041665,-52.97410933449372,40.066178158069384,81.08219054319416,-40.93958216101036,9.502302919448642,5.955695888559461,117.43519813405102,-17.22166063023022,-79.4305346377479,79.88811661405461,16.204972690498476,33.65879229482875,56.55422709196114
-83.21368964857749,115.12921141184084,27.435009357019815,58.23704513963922,-78.95767905479175,-37.38720318240662,33.96120803329407,83.64735510064003,-34.32024511181176,2.8760166931217945,13.473091338254699,135.55871334021975,-25.42893657703814,-75.8791636560372,82.70411586112148,19.86766526890303,34.353378630768475,65.33549998458098
-75.40549634089291,104.02144945789615,27.523567440878907,46.07213462314772,-87.13596209426576,-18.57163912780304,24.343228706369295,81.61959775972093,-31.899257794170133,-11.465702030806547,3.705703792359092,141.87091121351037,-21.0432907340807,-77.7971937956568,77.32047568505365,21.775234088910366,17.955015837830555,69.53365432651995
-59.60211743465286,95.17901824259724,16.285613920781017,23.26051298562058,-98.54165356425689,-4.437788206245937,15.509027371501357,80.17507114115918,-32.60254401303144,-34.89005751665602,6.0485570954275705,136.56707214846966,-33.45976705955255,-75.90721409857018,79.75314922446256,22.31848867601464,-1.9618657419942174,78.03562180059137
-26.03789185257366,105.88747991543414,-4.325891388076094,9.919684671441594,-85.04924692055927,13.022188318586196,4.138088171099451,74.72415134811337,-33.30521523487169,-25.01358782102269,22.259533060188236,121.50265134179688,-35.627231522763566,-61.22478623474497,81.79896495431615,21.888233720620605,-4.986793479001067,100.70490311886692
15.42363755476833,118.56856949783258,-22.006267003027688,-4.009086629989376,-68.3386845440296,34.39413891927045,-20.707407703093825,65.07181012226354,-0.31551038717068103,-15.137580961616834,28.803157134062815,94.62678763417426,-37.995118033799926,-43.41809975388537,74.2781687406127,17.5549058416634,-7.330946817596714,112.15054619562264
24.74268817132695,116.71824309960479,-15.563975902809435,-21.06489015266476,-53.39043671140314,28.23217114647182,-20.355146184643424,54.734010515796015,-2.286980113840939,0.6950852426854874,37.98434363204009,68.43961645443964,-45.25104948479789,-25.416959770071966,66.37065630682004,13.517951714443127,-6.064587655867625,110.71242097393609
48.89252587439969,128.2667144095011,-5.1167039859740875,-41.443028141105906,-40.106772694842306,34.18522507501282,-31.03629890536719,48.007974555984426,36.46496488442571,16.13665639061118,50.38907619937936,27.6088106822724,-51.2426351932239,-12.690272408412486,65.30316322087393,9.679872411714044,-3.82446860003518,112.99238578157117
50.372473443660894,135.3427027007192,17.929239579474377,-59.28402158612212,-49.97232385794683,36.3349842083457,-31.168654245120166,45.87055804225354,50.80245271189165,41.05056162855738,51.271071343204426,1.2363084539478564,-71.39984056727116,-1.4294583911962562,62.67718122774012,11.21668187841525,1.2449142694018263,105.80667900933389
37.385678264537106,119.0983354747435,28.96391507684246,-75.2714585687196,-45.87707905232397,35.65791853272049,-34.32678584713838,40.31410151343848,23.24458881498758,64.20615692759735,44.24369870546898,-21.51797420078023,-73.10501833637679,2.505945226070949,49.4105924577502,16.95663579939989,8.264648625905796,83.00288699398232
49.87405559497954,125.04217656169982,33.748941039947226,-81.1044134528369,-25.965472952355338,52.076096938535954,-54.86652799837394,36.221763945174885,62.77725234913887,63.142156851930054,36.24068901635158,-34.59933847375939,-50.79171067957239,-2.2513427776031847,26.77299404337223,33.73591934692456,6.0041021640977705,61.866444235488345
51.020539387447826,126.12307442084726,26.717639185467227,-66.23583084210655,-28.421615393109473,55.80379578917727,-73.54945101717824,37.69543904662852,78.87155967807038,64.22614476710555,30.19180352869186,-35.664085822339466,-64.81242977589503,3.5371791804933466,4.041912349287678,48.7615066717639,4.815003623494651,49.42871294442992
45.02431702260124,124.39186962782107,20.174698691191374,-44.3377730594365,-21.79964927419754,79.16561127563963,-63.519820055979416,40.926740155565206,57.75761131940402,74.97775895825367,30.394009679876515,-17.876267675483355,-52.080299664253985,7.468904358498847,17.155431341996696,62.22884606491035,12.412323233382034,56.72501301572851
65.77253158970831,130.20029625506774,27.889675835435796,-33.47689881594329,-6.099511690497551,87.297611379343,-47.922661720439606,36.54078593543502,66.42845939522391,76.64670442758387,33.624626701699896,13.685814339635535,-50.48654308505577,22.825210997812036,37.01157460906746,60.46598138213331,20.983451015213557,81.50920195254652
80.64740799729958,127.43482643983306,43.80760663548797,-38.2430966961841,0.026229933404549044,96.60617458074013,-26.56280117538344,24.244861338301114,72.26626171430317,70.6001795231262,32.65700423522544,38.12329890365711,-53.78107964905477,61.031979451491566,55.30945895553014,31.75410591920376,31.11434311934224,94.97222214939123
82.91047530410594,124.00572212101449,40.58414074024148,-35.19848181907189,21.578015955300234,114.0248754294252,6.614402407811877,3.8439054621480224,59.938596851460765,65.43205431871823,27.100531463060292,59.830673712926824,-38.2330889224452,81.85414456435132,90.89704753267702,11.543096080202908,41.828432336670865,104.6336854979698
80.66724225706906,115.81132904073948,48.88362642451027,-41.33547162583424,22.12956602775716,137.99106190110427,-3.5678115961804355,-9.231907810169993,53.27379808625044,57.82195364087205,26.52568477757979,66.40528959165906,-34.21413398710503,101.69812934502286,69.4568140152899,10.380099149396631,43.066982118562045,103.16921752792535
65.7143783768579,105.3907052511538,36.9671170075208,-49.23204638672032,42.20889677753725,124.65627728711684,-19.12071808472826,-31.486489297285274,28.54088032130265,47.96518012000815,28.100405279621782,54.23368852775698,-40.35700790735275,132.96638821003975,18.821222919831442,4.827363460208389,40.591810329486805,83.15677616106109
50.25902445683897,98.70091585663758,35.303647288836004,-42.77464533073898,66.97208382360598,101.85284293883224,-8.012712448515607,-36.06371690984311,21.97071214959642,34.20153860609282,33.48488781936517,51.83180369639692,-34.20042746317381,129.8573610946773,8.424930772676149,20.666632999979274,33.524009040404415,88.8352539993701
41.52778034991741,86.75737805954435,47.60403230979208,-33.68216143401321,96.12620362918034,81.78783861215994,-4.424136219325037,-44.643369161063276,3.875189000214643,30.39841404890583,36.038417041235974,71.89500919476212,-26.77970995436612,143.25064922352652,-30.38545567936937,42.761053271233706,22.840167954805896,94.81356510805084
12.37172542375136,82.35317166748851,50.820867390406775,-28.69294071886304,121.66336867297323,59.77355189975755,1.8989425232398993,-54.68610880860682,-7.093210707116825,11.555410386487093,33.71018909184708,78.68043499144414,-10.575197780868141,144.63010957674985,-64.69928509580643,59.29412758735501,15.962288237383529,91.03287899203856
-7.228278681032251,84.31630643896615,40.950008300484775,-21.459189816824843,131.6693792526452,50.84913085927167,-29.083278768849176,-40.800691269632544,-14.84094470649876,-1.7217040809694595,24.351740109929903,88.78975491900975,-2.9699528857294624,133.21439578783824,-82.30935212368219,64.69944929506899,4.003529110733351,88.52842733975417
-25.963830871516116,71.25962697064539,31.761020693325264,-19.988800949828736,105.53849417628156,70.63966704046803,-16.119687675655197,-24.959879843052406,-30.30582600605377,-9.042313385385683,13.236592240740514,83.17956299320187,2.188482267462838,125.70289542455,-65.93025393456546,73.13746994064927,-10.106362930479463,79.19451518128909
-30.16290275694466,54.51130812723166,26.96472423127101,-27.50443487148349,94.24809313879742,89.75003094989071,11.687583591660616,-26.20670960999665,-19.307789457233945,-22.32067677736965,8.275024399450054,57.16213656510452,23.943390930192365,140.16220289173933,-40.07410543628473,45.44750968475418,-8.886637338398614,57.65985479444886
-55.17764643243821,64.93106041440919,15.916252093453522,-27.69720212006345,103.65767726339742,89.62509953411546,12.736213817735848,-29.989957110743916,-16.22250108313934,-27.884725389958717,9.467036371467872,32.612654056866724,1.0633978864792226,173.46718151482528,-9.819136164712496,11.317590267956483,-8.353147602116767,57.81156065002348
-81.86718967872453,63.553298058999445,4.474896940723659,-41.172836838009914,115.016994562259,51.7097471637176,20.034396992983247,-40.99697784753291,-39.50741266951212,-29.347809999378335,7.730455969706028,6.1129351820472735,-23.091428553467473,167.7067010177547,12.041457986409018,-10.892569579230639,-10.752004963034548,56.50461778467957
-92.45786307679997,44.51839743669103,-4.625094765831658,-26.329090556026046,109.77110598633391,37.918823663852926,-9.778023934550156,-40.5749316783273,-49.31830236059088,-29.542018943270186,7.069246087556531,-7.102575745789565,-40.806091480758916,147.00213157534066,8.319877950716531,-17.178944007954804,-5.829128980888302,64.28592255423695
-118.10251922315757,29.40854847861496,-27.00913013682144,8.43552435592914,105.10780291345391,16.611061558807467,-13.125978810196813,-30.286135020127176,-74.36667892166312,-32.56899051298632,2.893486431498374,-3.2253935224132206,-43.38901292470039,117.79879128337276,18.958097793729845,-15.061125510434962,-2.5690130250001975,77.93262110376722
-98.5463599344788,19.102489129493165,-36.01681313772199,45.54267002935863,140.5784968505965,16.595332455515397,-24.18979359400696,-23.314179825876266,-41.31170954688335,-46.43667179297957,3.6993918770195187,14.130975549362844,-7.109319365768293,99.13984578748091,30.674618373156655,-13.035288908614717,-3.4130808254842275,101.64383916882701
-125.19705125772535,23.658774186533975,-40.73047887115483,53.54661153020922,150.9478418990023,-10.664424099287558,-23.242719915986953,-28.838695279073917,-60.311451866348506,-54.54325840287662,10.854160306332062,15.27840555062211,-18.003433732347855,98.54484668574051,25.30504872737658,-17.64445907609332,-12.560594334308686,120.57543470408896
-148.4444761012617,12.315012712062185,-11.071706806369988,49.24453954872244,172.7398553001833,-21.905994500479963,-45.4416575844838,-30.062356386343275,-96.69753145247796,-46.634697992208444,22.892913222181598,22.48268557552108,-22.65252267197409,105.36900544320531,0.60320474879234,-7.9898406911288475,-14.776924065630023,135.21552263659882
-162.33152068968496,17.298046170315118,12.822010343052668,37.42174470204327,183.98156604992027,-39.78614120892088,-44.49694935077157,-20.930194399737182,-110.13742138433034,-52.98489916920336,34.93274935643103,33.399851722689256,-17.540854791264,114.82699773404195,-20.09077451412206,1.5729126618496068,-18.75358566944283,151.6187010981888
-154.6509692329264,7.943121762011202,37.591239377997525,17.00405514067396,162.4070282361123,-7.956516186868093,-42.67466976728298,-11.989061361096233,-104.04925863981119,-57.773315888363115,37.598509580982636,32.11151199480562,9.6365010527483,102.21132033568243,-26.034603219574144,13.973562752019664,-21.658480215493938,151.3274677348288
-184.3880917675253,15.207511478594483,50.34500112989874,-13.27801453646994,125.59465248690546,-4.250507426449353,-33.041227321666426,2.327712703012966,-154.80150829824316,-44.98408521756624,45.245863865279006,22.426135954883158,23.722817314449905,75.72512885767992,-29.142595934837196,20.325280204517583,-15.483647259817317,138.83388171534523
-156.5218953414265,18.094560701090415,43.563494268973876,-8.404178982056646,117.09980715833022,-15.679805479634616,-25.264844583841594,18.8952536404314,-132.50948440724116,-44.40282285663197,51.331724097042,22.312563813264113,23.350947435307674,87.32224723355027,-37.71573550976591,22.09295157619733,-9.311229557669849,128.78640010561568
-77.79074541793587,26.076821260649055,36.680455954199104,-1.3826852997900554,129.50051942610017,-52.20567053368855,19.5221544363348,31.65894969401111,-50.25942866890179,-47.33799332183215,48.82471184389393,32.356556643810976,55.68964448608311,80.7517244224514,-41.98832751222866,34.02291162645199,-8.1217434184747,122.94265155965276
-62.55183029852197,29.68123531503788,26.57068767085893,5.052120767366093,115.82343123339373,-47.81164146781603,20.361400253056736,32.02508231532161,-42.72146532548744,-33.28147293878422,49.05310228236917,25.70204943648888,48.862878973984934,78.76772263263857,-44.206584173540705,36.974254900869965,1.7569246065523927,113.78277309891754
-40.296229450693325,13.477615178092634,5.812052733280053,13.634728838994135,128.51076388783153,-72.71380499770451,28.230131942993133,34.83778489822562,-59.992585823364294,-11.608404826580873,48.40353490316567,15.825623046295014,44.765891226091824,80.00294413046007,-38.51112991038721,32.60717028517421,15.832549721474228,99.35338703610913
-18.250576806876218,14.087341358074852,-13.87666597774066,10.79078784317217,137.9722372898817,-73.59120673764035,16.272371288359714,31.405669634334036,-29.806155200171773,-18.745124387238423,35.3523709043943,5.9497950994843904,55.21534006633655,67.46485504586806,-36.23035601998177,25.609232382701748,19.84713456605277,72.13461904849667
-5.008708055872617,13.443452986590614,-25.268939019754164,-5.725753526358097,110.12531603668631,-53.17843515904117,13.687684472222802,18.896807163744413,-17.495290461279925,-20.413761386989435,18.591122465150946,-3.242018232441353,53.8437102958635,49.94256762194675,-27.01264011284948,12.757734708637415,22.49225219150031,46.09129266946228
14.957009444257594,25.413063726568936,-36.665814914254995,-25.660753929172184,122.11963194770348,-36.86667431967571,10.026596711783188,16.549911313820242,0.5730965036878501,-22.083144018693513,14.428604390425154,-14.87505254818982,80.78841004476027,31.53762573829046,-8.514299131416038,8.01772900197853,30.506322356861112,30.2076822042753
28.56049689737946,23.335318997683004,-53.53626489269368,-25.67393293734904,99.2470326190296,-4.147970156295401,10.855504110875362,8.446903259586609,-2.554611783291982,-13.88983343315198,7.9231536660005375,-18.793090384711007,72.08369868427053,27.38690153395661,9.88941650131966,5.041453113627455,33.63531958348645,23.70228397253058
10.117833357289925,27.327416072831483,-56.837164483164045,-16.312244043719048,60.55079838716409,17.633339100973885,6.310881311781955,4.06071029634437,-0.3155874504656211,-25.13114271042938,1.9068151434766492,-12.164244079522348,32.31957134041507,28.3104939488547,22.143614834967792,5.782048972000858,36.17622326100542,15.051239427354815
0.25470966707432297,13.07227520535423,-54.86955342981487,-16.130573530009265,21.65619142903681,28.67239842798815,21.6859908662643,7.688393066135944,-7.7491962232294505,-30.611364044839956,-4.499361151705219,-14.813220667805176,17.063365631094257,15.558047964774858,35.86548281650987,11.216077377016322,29.04690401499482,-0.33561335109455115
-45.56072658618159,-6.637246933247965,-39.72328350687235,-9.112965775591816,-2.2998114763259707,50.0631097874501,0.04627957011925332,10.052579798051655,-64.79752391306917,-22.615523209991302,-7.096123267426609,-6.525052411596455,3.1702827361628962,-6.866532922103232,42.851648739985805,18.706759125215683,18.39984162194994,-10.446622848430934
-52.13193234863897,-21.645057063970597,-25.461194840062007,-1.5094280315830897,-26.063498159018152,38.054636399978314,3.306665392911448,18.868338865718687,-79.76001902985223,-26.827591189199683,-9.106207921838894,14.946205856440272,-7.40643485183663,-30.271768135636563,50.32865906718868,21.51568641983701,9.02030924675931,-15.965645621509822
-38.795051055299446,-33.31867922511354,-25.46252013205696,1.797242676430992,-43.58005334937869,51.63208494154893,-3.0061218021189315,33.54982398734417,-83.10595946343673,-34.165381551915345,-6.4280216021394345,27.92035488125027,-5.486869785384236,-57.099153428944675,68.35512993324016,32.82662705844265,6.572501532761576,-9.27563163194553
-24.4955893123168,-40.29122428526044,-17.852044599742825,1.1977691357123206,-69.59575540026563,57.20102539338511,-5.708373565925008,43.84306576277301,-66.72981228668816,-49.12113182172372,-1.698355005564057,36.108210052159045,-20.954198698665426,-77.48530275979354,85.50496984502107,38.67449380336014,0.8024033689275445,-10.201356601688403
-4.252901629178176,-53.50068150208392,-16.594940748555057,12.610456641919527,-117.88029966452538,65.69895833437033,1.7428936068891545,53.5568024310158,-56.217961544559905,-57.04616053575431,2.6413166480477983,48.884738194152284,-49.70670259533504,-89.96538871556959,100.6061452313558,42.18430078724984,-5.457861215220982,-12.200006663578407
-5.704022072365142,-63.865206120666926,-27.160154308073313,11.523307880667993,-123.97952548428245,59.644983205866986,5.577854646176675,55.562098305504506,-63.77767760940396,-56.57323698486249,1.4151015485686038,33.72973842503616,-46.82172505331043,-100.691880119409,104.28336757687799,40.03564826905469,-12.4035560975695,-25.232925751893234
-2.9695375813762084,-71.77575648894185,-36.46165696107289,16.198417508019563,-152.6404557016364,48.60939487139521,-3.2857426309405042,74.46877613485778,-34.03707152112052,-63.229917622886994,-12.799019867777538,15.057475488181218,-62.78821973856323,-115.71958010240095,110.50154352518133,35.1582289894031,-26.18706519260747,-34.94467969669364
-23.491155802083096,-79.47878993185603,-35.02675332331978,12.57316996779894,-165.87416330729084,36.88897180426593,-6.8789550410378855,89.76877554501988,-31.352640704015773,-65.00427433921044,-25.938363929075095,-3.1282501173996167,-50.24208269887947,-132.02111357335934,114.47528893810731,21.69253633502956,-33.526879941809796,-48.952824525806676
-44.12386970246126,-81.01751513570017,-11.722562950124379,13.63614548271741,-175.79013426419326,43.23383978140954,-12.526192761589112,99.21602633435297,-10.313579782329839,-56.62276129592006,-32.53412755601098,-23.757333671557355,-32.91404284319014,-146.86206985711723,122.74751294034083,11.162138849884442,-37.35267439404912,-69.3084232274552
-65.35584020459325,-79.810285007147,8.059803289014354,7.180229069691271,-188.24775098592644,25.651012173022067,5.065820558088149,100.36913554852649,9.060233460050355,-59.08176301725166,-41.57085253862382,-38.33371075746848,-18.518957787914477,-154.87127010080306,116.86073869361744,-0.6322935112550425,-42.74259056049414,-99.52740253027596
-52.32312127293769,-62.38066422655028,-6.637253151255717,2.287694838366897,-209.20404501993633,18.125226342797372,15.72076617729294,101.43139661582009,44.737784730460405,-74.72503400079327,-48.84928495050225,-40.216809591810076,-23.26790669194533,-164.83789821675825,120.15499778262893,-5.97584875801968,-56.23963417542026,-104.84385216847505
-34.420554996945,-59.49117424238692,-32.57128151611278,-14.81109255690147,-213.56087755615934,5.031090042929858,5.864142471471993,108.06699442896556,19.47176552009838,-64.0011566529833,-46.16620260243154,-50.59850957730782,-44.13339212518709,-165.6289492445053,117.49316797753549,-2.329477220706295,-67.10138853975188,-101.07856792549546
-41.04297873141481,-62.74358287630433,-59.097675996594745,-21.459429656781747,-209.61904757321102,-9.725238348106195,19.148884815582093,103.28351089892678,-32.167017957644326,-45.66038277390877,-47.68200476917515,-58.834261760655565,-56.89618534024916,-149.52942894793063,104.8711054070849,4.64261867421277,-64.68309222607672,-97.50927318935041
22.244789237412178,-71.35696154813003,-72.93506826252353,-18.340811166375246,-209.29268079464003,-8.956144971384031,21.785341920025623,100.16710467468285,17.948357674407667,-53.00396609134245,-51.24824699352019,-54.08419632946021,-59.11473201502217,-141.24670237521872,99.6717074813899,4.393347737459351,-69.39514267487209,-91.89007376345117
64.91417520267339,-54.08116633424822,-54.94262203966133,-21.959283971207448,-219.3200328205961,-10.435483891831367,30.570573142911023,101.45220679321302,57.51146153257008,-49.89850587077545,-42.02097738070692,-31.6608754238404,-67.00010465877327,-135.89782864383676,115.56687390925326,-10.40167738302467,-60.826999437933495,-69.2795645645243
106.39922508308888,-30.448077489420804,-29.339534152210657,-27.236532674366135,-229.44690236139826,-13.186819798236261,41.30522496232063,100.98638687162959,94.82317361807023,-46.30505364116546,-23.808871102630302,-5.334168107503057,-59.65343309469387,-142.17428188819184,124.33333056083718,-22.847725903715407,-55.18977210826642,-49.20951770989569
126.97323506225487,-0.36036854588025236,-26.302120074365003,-57.02435386174715,-222.58303604918618,-3.7335231502742765,29.965423857190594,93.98441593409392,74.51152903271554,-21.42247185824584,3.6810231251972834,-13.4836877197353,-38.53946831902597,-157.5368851023371,121.47863112183084,-27.768997108724847,-54.534195461714,-43.399080655990716
129.76141642126632,7.665570308478708,-19.951148977784264,-92.08405644315441,-229.97875150143147,-33.73667336926178,35.1259089901865,87.4776447409656,27.045717999914643,6.8779126940888204,24.725788638032576,-33.257638023571396,-60.2019255751195,-170.7549112528057,116.57304112536924,-26.72807543706751,-50.949912310154204,-38.46935582771751
145.33080919026372,15.700059726780651,-43.19734617896874,-99.60252180208796,-255.24721542688224,-45.2853615127936,35.69254156681164,85.6653429236763,46.372463255524536,13.400443317820148,13.739078509386692,-55.28098414709632,-80.10875801133915,-181.7306044283131,112.25312415367245,-29.58845416329107,-58.597212306840234,-35.39712728078478
139.69669082829517,22.180248939559704,-44.57514614650756,-108.87695244554031,-249.95000857487523,-37.01250603795018,30.20038984862041,83.17631509138968,68.33060756918916,18.067339680489056,13.299649980302584,-91.27275605453737,-49.04034635021816,-189.38961999848624,110.66715304473243,-45.82299636892655,-58.335093339515154,-40.13971730465216
129.36339402608522,36.38329826677739,-26.721368075509993,-119.02830763254921,-245.53273269857738,-43.68438490531949,18.94236273566692,74.24872859985707,95.45923145230725,38.164062711847166,10.907296464704324,-124.53357404443011,-32.329599762861655,-196.85688481416685,101.46320823826154,-68.30274992968903,-47.91734002560854,-50.74416438938563
109.64352539303985,29.890482515150914,-17.859155832095958,-122.2438456082457,-231.15517773012775,-46.16019897190914,18.910844042605056,42.86668201173454,106.4689279698557,54.35442086265401,-6.4264756493076085,-154.96586671573914,-20.601255657505696,-193.38991529394735,88.44974124124134,-89.9964209375683,-42.77378570921137,-70.33570233809816
102.021969402838,6.998421869586661,-12.617387501829366,-109.53893037664636,-191.77784057725648,-62.01845464989474,36.453525300861884,19.597010088680555,114.4458157990172,71.71665752388571,-16.631029522740338,-182.66737040661135,4.016172317789234,-186.6058717232047,84.8103457921818,-99.96640622445693,-41.048841578922,-79.48061949143279
72.41635990282478,-1.0427245180522604,-9.824220902298713,-120.95311026162783,-200.93677844973254,-72.31365862217608,35.14400929953725,11.763999837381803,98.00283238635544,75.11386362404492,-26.05412888875514,-206.46626290120886,-12.970214755972325,-185.78208478540358,72.38048067610393,-99.970609069798,-48.21124728123209,-93.7066673650648
61.94079418997004,3.4229428466874534,0.8720167325603185,-112.34496051262398,-175.3297081338715,-82.31943203969308,28.068374568895493,12.336245117521614,119.25028401263393,65.03436811241222,-45.63344939268116,-184.760409476193,4.417424999159003,-179.10180224657978,58.28895947788731,-100.84910271769239,-63.38198740956381,-89.86912429537068
43.837243758320554,-10.464733447393048,12.244607868153643,-98.07004182799443,-150.5038066932264,-87.54361679736928,17.082061072654973,-11.303993212698956,104.45656144131398,52.90416629856534,-62.86880710974002,-146.94484427948674,22.975579754689925,-148.49816563433063,18.902408233134437,-125.6491779842092,-57.65427331206648,-111.71881225713882
6.191660264449337,-21.416674096999685,32.10612978797205,-96.68319704320803,-147.35758102918166,-67.38052228480757,-9.924546450765222,-28.785216725885192,45.51605784886463,64.79791385853186,-58.91226301347813,-131.20378978215126,21.21966606451283,-130.0066938610699,-56.228751004145636,-88.43208769000974,-47.727479285969004,-121.36467385937655
-3.338779408335652,-9.608662155710928,60.065912353636236,-88.06680343911984,-130.34335547010704,-63.43243285422627,-23.84949523953281,-6.90385708545071,51.61011340441267,64.67994298073337,-38.64670689204496,-118.59168214309034,23.0759490110755,-116.7911475205086,-94.25204222740865,-36.561899912544476,-33.992135471037926,-98.68935157503843
0.9880982061312658,-15.764275555002602,73.56498108189582,-76.51767312324202,-100.43744078674959,-50.79670621083163,-28.013200500488963,7.171329620186469,58.577580681932545,58.312097782393586,-27.365494148112536,-107.25305370690276,37.82203182148217,-107.67942602422704,-126.51579602894464,24.297172353739846,-39.007077617372424,-97.79536133266609
1.301134112681229,-15.469375285361714,70.84546273022055,-51.2933262858206,-80.4914736056798,-33.77035865772288,-33.646352562697714,11.87774791841705,64.56295169605374,52.628114333856935,-17.451319658573432,-94.3558511001022,42.80143566919162,-95.93292780258697,-127.4338778648225,44.53493309047217,-44.41254711916188,-81.18224957551087
-10.21207943160416,-23.372913867426572,84.32969563182753,-34.366626418368696,-63.18084137671168,-37.25618388578171,-14.18609442473401,4.480905686112507,40.26889480806162,61.10479630163202,-12.712831782003903,-72.28278341375898,41.13932390846415,-64.94961008150861,-104.62378171529852,18.291853887169424,-28.821394361196262,-84.29988523293369
-24.176183793160895,-23.166335418803573,85.696906231176,-24.858526480766166,-21.844692012319612,-19.749706443024273,-15.629268049209903,-22.929552935762942,33.3523790401335,56.20269544912527,-10.220292683721436,-65.83892126760232,60.47295127246282,-42.26871954505518,-73.3203017041702,-25.03714946360899,-1.608656987999879,-89.27700157909256
-15.785893191325506,-30.47516005378177,93.20906546338236,-13.979703460494015,-14.491427637082097,23.143613776461187,-3.20976228770798,-68.79118626054841,51.72367472675623,50.71500913325204,-4.602518897244586,-64.86785620550587,72.3840280876074,-19.100814845979627,-61.06310318556507,-55.568872464990825,23.749002965664715,-93.86756064867294
-32.11201429165568,-25.670458422731315,79.81495526805165,0.4184380202788063,9.95425133391791,37.907282935243,14.966788156324657,-122.36172801749316,42.45228177243207,57.43493360044159,-8.847979972324,-68.58831482714226,81.85321008039712,10.706794679420383,-68.34065304994265,-83.75275730192908,38.26718001397812,-103.5404761824538
-40.829606643771285,-35.80369544890288,73.93295641561542,12.378899270781474,35.1838092431463,51.49479107963255,15.462485497246945,-164.01206032103084,31.222182707163732,57.807529387636485,-10.944761854000289,-68.4063966476258,79.70077878232826,30.454896393903567,-73.37544859105957,-98.65120108621966,47.90310322141846,-98.3736396367368
-28.36401143893999,-51.69530871686279,64.52772511396401,30.105051948734285,43.130876040598196,76.21097329770434,31.87155436039648,-185.6366811246645,39.42042145500024,46.266335342972894,-14.31087130268624,-56.802428588952296,68.36828479418843,59.96827995130161,-81.24586041176555,-81.5139817597278,46.89507295525112,-80.71089730820302
-26.258441271900185,-50.786619438246994,58.53294424927777,47.05394664478031,70.51507830306008,80.3170299984913,44.95538417824417,-187.43099858644052,52.88662664500033,39.120222987984626,-15.723586627382076,-47.74143282226491,99.02848892296318,71.70773810653017,-100.7412476424778,-61.638485493693324,53.79816681446529,-65.88456497874363
-63.71231836475936,-54.855556655435194,49.40553111652529,58.831101595244746,90.57851541133076,90.27818091008952,49.14745028175136,-183.45782207987466,-13.53674789523361,54.631217550329254,-13.132076903812527,-38.29363506029234,107.91098961048915,70.1658090446495,-105.39651927377007,-26.133954858098903,68.22186057541371,-52.23450167077094
-74.70876363397416,-58.62884899157709,39.68457546104585,71.88204122974551,87.89158799263956,93.30124050878547,51.57673656253079,-174.7914835165665,-21.273363228845916,46.60723470117665,-10.247315770824812,-36.85755163686196,100.58237849516834,75.06964468432918,-107.12606988767045,-10.547871744459,84.30679616909681,-33.80361586077733
-39.22768887929529,-80.95468028611698,28.881779783379027,84.35137878901979,111.18583484642514,78.54618446274839,52.145556556896736,-182.33083793337073,3.1138836342844662,36.14237204464435,-10.780274775056949,-35.42519149749256,113.95737943780574,71.28258960797714,-105.93004317349694,-19.76318793960126,88.5763112489491,-25.92419340568793
-62.34856625566565,-81.69595255186655,29.985617515458177,86.86407794387826,110.36316418121157,57.24364422433991,46.556943472786145,-162.6182914329742,-13.813616775734076,30.756300335055478,-12.582458978281146,-31.555047929854013,90.51567918453988,70.62153020635111,-103.27344203652221,-6.318306909013323,88.9407878779047,-31.233003995818056
-81.76549652934179,-79.50552041183616,21.609040454129946,98.85413184013812,83.86138303325814,56.44481180323212,17.818426891055935,-125.41972029027967,-44.51636764121498,28.78886184494883,-15.849157147358367,-9.231181703913634,63.070371693914524,57.6568485539059,-97.59387228417143,9.571553473616916,86.37690777113211,-43.284637570020365
-95.52505906680626,-88.73929081485761,12.736560582018534,124.22794880657861,70.93923536652207,22.828565888083645,13.586963059000432,-97.49344937714618,-48.95467824809579,17.642231112677052,-20.28736731112312,4.2999739528370355,48.22336365133188,39.322554067082606,-93.48136995450535,15.796767172557942,84.3027952509396,-44.98898051091404
-96.88859916175241,-94.5534991628372,10.692511416701599,116.50053887630654,42.39739044945705,4.149553196513691,0.2682712347137439,-73.37075118200413,-56.035219091890454,12.453380114467594,-19.353990116064423,-1.3132189387416133,28.39635030821755,27.04491674075858,-105.87768391994328,23.880880569662494,76.46845739012655,-47.67431174551584
-100.30918692868356,-92.26077846765705,-6.886723289836365,91.10191471963101,33.3929690546219,-3.107885959567504,-17.157119045227084,-47.485242393039556,-65.85562383647579,10.878544662846217,-19.78737688145902,-33.5903179121136,34.25394819873364,5.296674517260705,-101.77460482392537,27.866703764741906,70.10066836415385,-69.70025770864521
-93.87229789143001,-99.73269224891932,-16.465618561374683,66.39181639706675,4.765552086931081,-21.20969001980638,-22.185061864356445,-19.251086484762475,-67.67351334777736,5.202784270880624,-23.247674484596068,-57.9603887438289,20.67836521394681,-17.52328439879792,-107.7351367951025,46.69976969799092,55.238439004661686,-92.12117838390617
-73.28070660832694,-95.58238494617609,-46.26724821288796,57.31195807006174,-8.913685730008943,-27.40157167469385,-49.777037196285754,0.9798840182183852,-44.00812063994963,-3.3043299572722304,-36.570888111036616,-73.93504298974294,3.0996058943927736,-36.04345811127213,-121.02495376450204,68.85639539865134,40.96403836458935,-107.22206422910595
-63.046216359792524,-105.98231284317285,-91.11573532771972,93.1597365459936,2.5119949486490185,-54.69180550001026,-61.65121663096497,19.06701917415566,-47.887563198616604,-6.0488968165805765,-42.471559253534,-70.5765087166398,-0.2202529271451894,-39.325850191719795,-138.8120636336779,83.59415874442124,26.5939603653101,-121.64358395271658
-50.18005369057497,-92.35784287013398,-81.47874851755901,92.00037731650588,15.312096940416602,-76.02914796750996,-70.69842420157187,34.22894030100075,-4.994261345526549,-5.472340054173468,-32.74639740574569,-88.80326895700274,10.621208333180693,-55.8861881779463,-130.33435222632892,78.41279714348798,23.45659984764125,-130.99107218922168
-52.45562887998896,-82.63925533382107,-53.48962739881839,89.08838861575109,19.135232408542386,-98.54255650199649,-68.1294621406432,50.95778414238744,-15.525012904361082,15.613122127264596,-21.360417294427794,-78.22381492604583,-2.5601114265491702,-66.29024645080894,-104.28342390168395,76.55477968739946,29.598897885198387,-139.85436636207314
-72.41174046391481,-95.28402209418992,-16.328171392977033,130.90891326114843,18.864619571684138,-104.55591427239153,-70.74145701953401,75.11289313496798,-40.319016298904536,40.410377826004854,-8.41123282924755,-44.79514938848478,-20.134933105339336,-49.15064214996556,-102.84747935101755,90.81319602112576,39.747431295110005,-138.66292243125574
-102.43077786242557,-98.45587121160325,-12.280149835249686,127.71454095527456,39.79394258081395,-129.51890667374937,-78.5344004547057,90.87358861626743,-43.63348654620804,41.57527916838069,-2.0043909614556803,-81.38965961542496,0.3779317036410177,-52.31932805666487,-117.04205486896855,91.59767529070504,42.57399593715208,-143.53017305861445
-117.80502198424409,-93.03386611021224,-27.47812742198507,98.64623596853704,25.47735498750327,-127.62997076769128,-103.32486691026293,97.65379648947203,-56.03523982176699,19.693792020916803,-4.6789458767752485,-98.65038587098772,-5.377898119379793,-50.7955810253615,-137.19907400223968,85.5488669460981,37.00444934690564,-146.05744939483245
-154.27689106839017,-115.24916462740723,-42.292858063798214,96.92750815155784,28.259730413609702,-156.31176629993314,-100.3855955590771,99.35969571596503,-106.91919494689895,-10.683060746174299,-29.813959413705874,-67.4751905019716,-4.589354000136787,-45.84860857022234,-153.74810949247342,75.10813633350271,20.206808736459987,-147.3188748967
-165.6539557548339,-134.63268065562437,-92.36937241948883,74.80375830676311,29.19578940012169,-166.44234980405494,-83.58396588309039,79.87762546681809,-129.09676120728483,-50.82480989216988,-62.07711638444432,-75.85356304000169,-5.947908598349887,-35.42725395992764,-157.60701428514542,58.02927602333268,-6.549284551551999,-153.95505600176708
-151.1546324454642,-135.36398178769286,-116.18324549389439,46.14241552613722,34.73126181591888,-137.4158291652999,-86.31890161428517,57.860077287005375,-141.1228391419825,-75.82871143443883,-67.28815640976205,-72.31973721545089,-0.2736697352715396,-17.578017489927852,-156.00247550987598,42.71077105853926,-33.497966685588224,-135.2036767792742
-119.86076614436072,-112.36497984600574,-103.96865031633385,32.5258646607691,35.78429341732874,-125.77591819349864,-72.94530044556474,33.990515386047676,-128.0557198048004,-95.26520316619741,-59.50974148237057,-20.83786719328576,-21.64912565361834,13.168279526189707,-153.23143978298486,32.76587607486066,-68.64708338740385,-88.52550064743124
-87.20195209610802,-75.69452935033968,-81.8978040222518,8.953742845438391,49.933589272637946,-98.3188587419352,-59.967289579257155,15.007180694369383,-118.70435721091461,-99.75912070173834,-51.82795503561766,34.45089032428423,-23.49147271565767,48.60873210930286,-146.85246148547623,28.38982373778949,-94.51581099734703,-26.322918088877984
-43.31442829457493,-31.407510638463755,-44.794784902472394,-17.34726415643315,48.37042383031334,-56.11875073008065,-55.19745367455057,2.960739442704295,-97.44342901623372,-85.59944790776179,-27.152637753264788,73.33152668458891,-31.48463639708784,86.49755699753996,-135.6936376315134,20.695675899600534,-105.1469399416914,26.403838712660473
-25.307803524745843,1.5503808797335665,-16.585673574354857,-27.919836023277526,68.59567274002927,-33.55097481447608,-48.86998056462519,-3.4185084731996493,-109.19540721887064,-64.9933795528556,12.172480316613765,93.75337421173924,-23.655566336514106,110.33094005617392,-111.4540424264799,7.534877594710499,-82.96199028819295,65.16266936224324
0.02188818646739321,15.952385011440441,5.46401659605614,-27.25622686270505,58.655717042125616,-13.81824726105593,-34.637075470123165,-1.0056680145443941,-101.90862339295579,-44.67927617128923,46.4205921720299,94.34937032274453,-38.09072365356621,132.316441568011,-85.07131734561803,0.040325727746367335,-46.12521569982847,79.21138403178273
42.147783447372646,29.669786945863777,16.764445873805727,-38.69664006641442,65.03593491735214,18.900146714413154,-34.471684830135366,6.09747993274919,-65.91486396833429,-35.49712256836181,59.3805701100879,91.91679262650615,-17.46495859865656,136.04790241862622,-58.010295802485814,-5.010771282925077,-21.101778460994105,87.49575141071003
60.444599289795605,38.01493983050423,16.241457253751282,-39.682146543701194,48.087572559837206,53.862024915907895,-29.037527689007256,9.687526251692207,-58.246147648789176,-17.62237231699258,61.30653452489413,89.58083527050803,-1.915547284133627,137.3462158726578,-45.212572374673194,-7.618500175232864,6.659409271401732,83.27755963790062
51.49465248010486,42.06200917817168,9.461624087867229,-25.81816220462501,56.05383685313004,35.2073374247648,-31.12771639524141,23.729365701245623,-64.83965421951842,-6.680237828423911,66.65188902876048,82.06812655997192,-11.559930259670402,130.93820115465567,-22.263665700550163,-13.251781610339897,35.302934234364315,78.56888767118144
68.13111847977478,40.639037948064825,14.101083477888935,-16.538596847430263,82.7825677494017,-9.719562970706491,-20.42938631074226,26.15218380460219,-22.999004939166475,-4.526189326336996,69.85020078197512,64.00763654109915,-10.362348627423994,115.45698465003983,-13.284984929997876,-13.023848819858816,48.91066778558801,64.1900891944256
49.02527454696899,32.67173208912034,22.7379372301521,-12.624737164562255,92.82427725959364,-38.242050278849945,-30.634400143425708,42.83511338248856,-28.91696050870501,16.67225678714566,63.77251327653997,40.282397145972794,-1.6431138670769183,90.1216364946289,-12.026376027616308,-9.669206379917565,56.56486192358887,39.946033961845856
35.096051540240914,37.78924349769498,39.083273398016416,12.486292157520179,107.85924926510594,-83.17292373698324,-29.710958671942606,59.81292618687882,-8.666494728346187,33.477271345695605,61.21204907838545,38.432034897014034,5.320339320492172,64.20997114956104,-3.741455905485836,-11.000561521289715,65.10163975961004,28.102875594449287
2.8082711694138283,49.93674324842456,53.37141572176627,43.55984844422481,114.70394811289631,-113.74978595858958,-31.233424644929606,73.47211135780563,-11.662303807547048,45.79122587477608,67.44238477441763,48.10497174146174,4.961569314440135,39.382496241568745,11.765160558573896,-12.916377247174218,76.27892103394657,26.512335983810843
-2.817512257439617,62.27814513492895,48.51236121804674,44.95081614673501,109.25700150401455,-118.15583346478168,-38.229122348293615,81.07807466496982,6.725322986007349,42.38351031604368,58.34211712171276,45.47285981778903,11.440996983739193,16.323138717208483,16.03623508767592,-9.850250432481875,79.35443385803559,23.455681473583013
-5.316479304539929,58.40690887188016,20.697563317798988,44.88223660843311,101.77271830963328,-136.43051524166367,-27.553099336723697,80.48216533499962,-9.168399751262221,38.97705168129985,44.8489714933772,44.012606069442285,-0.7300002897246198,6.262858018228441,19.91185606632783,-7.173444728346887,71.59384015051026,23.03473498347175
21.77695080763091,44.0848054653933,-0.8732046479761415,39.838380502206164,99.18503747802248,-145.81934597008768,-14.342235085990989,84.47736391468786,13.802304603881481,11.450419805488917,34.092021270814215,45.4821864463576,-7.234598615346499,0.803404226835589,30.911752987992557,-0.9797382626044389,54.169110573856415,25.835643155668606
33.83352211873283,28.39397320318431,-18.93424665493599,26.596486637963622,100.90824510415241,-151.10731583310235,-15.002957647664424,89.2548322858049,7.374807533654021,-0.25433712936679687,21.48141087199466,41.28785402795418,-6.998517188125689,-6.402663770230799,36.34050706836433,1.113477799434337,39.38519734295025,21.99517650437712
46.38114436541933,16.314929252206888,-19.911020366558333,17.363711735086984,65.73100044084393,-136.76659805595293,-8.53877872711908,84.26734551659914,2.506746878083554,-10.102242659274943,20.88459744378728,46.859663322853805,-33.81128933562126,-9.495573451842581,45.573352387687905,2.4264795744045466,19.33189969314147,20.986339862811334
55.709149942713026,20.05486737226081,-17.280173764801773,26.2027046019522,40.1386063807322,-123.59803842539449,-0.8090868721292139,80.4523788777891,9.549979482360023,-21.120652559930505,24.879650622533735,71.37757060645951,-25.953179404428617,-32.59648254684025,53.33686526722096,1.3966566453087808,1.7242545755508445,13.62951117894918
60.84128513655283,17.054829520699435,-7.037615657949072,36.31626325472435,3.3301758140430735,-104.37470480785959,0.7642070429632355,87.38019678455481,16.199768453071272,-23.934388718009963,26.53292858811266,88.37645393015605,-26.198234539592143,-50.411736447057535,52.50212790424017,11.20771791637984,-13.925951864293879,10.667248584920145
48.59407559345221,15.713364835400782,-18.871171527899815,30.418892171562437,-39.12759560606132,-89.83868305385982,10.048580827876684,91.47617689862253,27.632114156141952,-33.28973391850338,-3.7458063406892474,85.25858717487293,-40.79650790395177,-58.155810296495154,42.678609190704805,28.832188076594235,-35.138291327892794,0.38083089536878845
28.14766605172204,18.56956147613748,-25.045911998574624,37.31954441584861,-79.71486451840208,-82.23582974587782,22.16122733706569,110.22085607704409,23.729663839340084,-45.67097260384006,-37.53809433871478,118.47026304765934,-79.3184166407785,-57.19562134747762,53.26139108305483,53.68403605531023,-61.03377034447941,13.727970001846984
13.174453629313998,2.3808675137878055,2.563726901723811,31.13883389658409,-114.52513106195738,-90.06209130824055,41.00853700737943,122.22698862398123,2.5394058009784644,-44.96453978705764,-25.624377052038874,117.30739297884337,-99.18514546878063,-73.70315749347728,80.63724140088016,50.89936482282443,-72.37374070313373,29.028856221397277
21.05782564549184,5.331452755305833,1.7499031267466343,23.302626670055105,-153.12867065855556,-93.49266436773883,50.0864333778719,127.3967144286998,29.199197010682624,-43.963560603310924,-9.802110042447952,76.00828183199597,-105.47485710912214,-90.49037483050849,95.9972327575592,30.82981196263748,-71.99020380441395,24.01773351697551
-1.6206963553836378,-8.712050165624554,-5.025961086167731,17.91245379431593,-140.25102646691943,-110.49628621710309,42.16832591865746,128.5619040555303,-19.534885278593528,-19.523110858823294,-10.188730656373584,51.800472980255556,-91.25381308139036,-118.98295233184889,116.13860389403575,14.081078809662264,-68.76994122340423,13.050498220014852
6.565907154460232,-9.866373323831809,-16.6894850357796,6.47199346600263,-126.38108147450808,-114.9980489881275,58.46586366101329,90.46790814725263,-5.184019412222298,-22.71814791758606,-9.694077336384327,24.07828692637421,-95.19444042569337,-108.30093598792787,96.82250719722009,14.22751056232973,-74.52946698528193,15.072959998821489
26.184042205285312,-3.8933211017275013,-33.24051963799357,6.950167185319387,-119.62426680441999,-99.1850382911017,74.95532551979693,46.80644090513832,22.83712488683277,-30.89203440898284,-11.34548307979647,15.400761252165317,-95.03073727235024,-103.65959354072154,71.83863042786788,29.804161714920326,-82.82329793053314,18.659370627257843
48.93309230036716,2.175754224262704,-51.456206891675855,5.870099966818181,-100.05824964267514,-79.07282485623556,67.22235960082774,14.86271551928499,53.68868572073778,-42.775177147639305,-17.877307749395115,12.486538775409215,-69.96156887281359,-101.0546974087941,48.31609908315829,25.654167819958666,-90.0380255761985,14.337135713066573
46.101968114210536,15.567533049363618,-46.3360092884686,-11.61229558233034,-59.18666040892316,-85.03266421643244,62.02526986212959,-0.18761493507646776,53.678890291865855,-41.375085911471785,-19.133089597747812,10.55048150947475,-39.32313279697321,-92.28274316627699,21.17682174823797,28.04738451702106,-89.23987849511317,5.231508118926701
31.460691910764034,29.73895690378535,-42.97780659814301,-27.039821396315958,-31.384885260258528,-88.35287662047294,30.164475063508593,-4.0089065339274015,25.932933954991597,-21.711171678872397,-21.94881375482601,8.909072298148509,-20.69378853396381,-76.46456317693591,-12.801795497347475,16.377953857412027,-77.49905285215212,2.768647145513359
45.342185677554426,36.77976133479483,-45.19008787923855,-31.428084015087038,-9.133147849545773,-80.34161706275282,0.9373801047785566,1.250163643416009,36.36993892965256,-21.088646117184833,-24.175953359738642,14.398435664651396,1.5517346978169613,-67.07668420321869,-33.795119633009925,12.03284797462605,-74.05405211446363,5.386230933029083
39.50379528763689,41.768163595047085,-40.863127248653846,-25.07017899009537,15.381293162777384,-75.54958124384966,1.9812080066932332,7.288481589888377,52.86065613600343,-25.24943336205258,-25.619136469162246,13.346566338508556,27.413467737071635,-44.19669281682667,-42.48664295831151,8.371269553897202,-74.02191828846443,11.033646952595845
21.270114739018958,40.504897784585864,-26.57873446831646,-25.349309985937126,34.93187868657799,-58.448880008915886,0.48304026079387263,-0.054530059183655055,37.31871399908347,-22.47455811339707,-18.758660761734244,13.761472944767046,38.23881138667342,-14.66040367950066,-40.731750706020144,-5.935148121556573,-60.41013403724914,11.312527352897838
5.290062328842144,37.872869898072985,-16.399451638469195,-20.644335330971273,54.49925847835023,-35.77758863353607,-2.482806279804615,-24.490069072951684,22.94789076063242,-18.818753161498257,-17.461869161451048,19.451876819165054,52.87573684525367,10.30176258025989,-39.76097137984379,-31.667733553286332,-46.10945103698666,7.785591319834825
24.669862839094897,40.02453852319471,-15.012674748170602,-3.240426345924117,89.41579385910876,-24.82081859368965,-0.8614705638796405,-44.24066129389766,60.530357273478316,-31.079102166449907,-19.775550872231413,36.76559603277693,68.29687955919302,34.01038057685348,-50.2188874342345,-32.59552929384329,-40.787916181465064,7.093757827911773
26.869896363853606,36.217575092998274,-2.6913617887381456,-1.1654905358483347,115.26713681158823,-15.617172730849674,-15.453970709673488,-45.34144967735516,67.1548374059423,-33.76688683727095,-22.476944690611756,48.31961325359022,75.61540847015738,53.24294791680349,-52.47618245508505,-37.52763023783817,-33.60545170214519,13.338841669788877
9.546614661967315,21.27614404450476,-9.41625761829912,0.8149402720020404,141.81913906701467,-23.4986100544575,-14.326145874541307,-48.20309926633374,25.829028774420163,-21.803856180944372,-27.12851893069471,45.3247876967837,77.9563923367266,67.0230814323607,-45.4585114216665,-43.72967847541053,-23.194781526300865,16.071651181631218
21.23614516173098,15.708397221984416,-20.636174829905197,-1.9868478538132663,141.4347284039584,-22.878498541898452,-12.12657806028124,-54.87661718134501,40.265594860398586,-25.659176309735376,-33.14427191516698,32.859373063895895,69.4603854947273,74.76501974672426,-36.490095934886945,-56.18227468580269,-17.36845820100981,16.268946884695648
11.840290636246234,6.135252333798757,-25.90154844516641,0.5854046276151834,153.1770594813676,-23.229337585673292,-22.234299531415488,-73.56544506977876,30.287673427022327,-24.238726329214465,-32.027925353134535,18.638377407221082,75.12778573962633,67.0937953395893,-24.105962165828135,-83.96764161855948,-15.345154339424976,10.610545090292552
7.043252923277857,3.299090541627681,-40.251481112019476,-15.492254733340374,144.9167846360192,-19.765599847171515,-16.426146227093838,-91.86723799362221,34.66552860868087,-29.261385915948946,-36.670246433758436,-14.13528864002167,68.20038609091563,75.55302392993275,-21.489798711446788,-105.40581074094267,-12.437234304530971,-0.7080631187852848
3.52487759145745,1.5357942530225657,-47.86522715627907,-31.176717840713074,130.03305325283662,3.3335626900918243,-11.303857876630632,-99.72343306114983,27.129368416403654,-24.418263314304436,-37.696038042870015,-38.99634021232963,56.197843792266994,85.2012267188698,-11.942027321414187,-107.11771818424832,-8.839950983007755,-4.209938101308804
-0.4724735584409778,-1.7913626388083657,-57.23881587803044,-6.233149759252676,121.61203157566959,17.650037169053917,13.543108140693953,-98.11078801441384,24.476463005888775,-26.701756252585728,-39.2068717197826,-24.30363686863558,53.378197545577926,94.37836703768289,-0.9313786282674172,-92.13079708366477,-7.775948887333135,2.7418463029785585
11.946181870380183,3.2787437317528454,-61.73132466184444,-11.268253300197774,112.72003916583157,39.492950490346175,8.016404803755623,-101.48282446665168,38.6211942104955,-30.642982438432202,-42.47224512789254,-23.280619004656856,46.55765842990479,89.60781083215637,5.096837222363369,-82.51573649081948,-19.401573928828057,0.7135624330078123
16.659567486676565,4.148300706331348,-57.04561459827234,18.367236207198484,106.28681738001575,44.15517283564917,23.67939121422133,-95.19105295632927,44.85628994387328,-27.9409854472536,-39.77714450796216,4.99132981270558,41.49803644790178,92.86267260811583,10.049028185057686,-65.47940876719679,-24.673509736266514,2.498532099317142
-15.824776896146574,13.70816720480805,-66.42402758814877,38.82483160522972,83.36676384730133,57.90690824778565,24.49643210818909,-85.97402437491439,6.364916929373773,-16.251931461214117,-33.953592796501994,14.124801653519844,25.601483784763516,86.46701300236668,18.90583475794186,-51.17825171639072,-16.267370946890843,6.143753353092228
-29.255823867154483,18.48161366624946,-63.49877179414517,19.342180456782504,71.40169287284442,74.49832618859665,24.72562683575216,-80.27731145326813,-34.85996326923844,3.349991842076726,-28.517217970998757,5.096387859334058,20.059728044383032,83.99535788100641,27.66338250589473,-41.37013398704134,-6.195007113644007,0.41873371012864347
-11.328537478654479,20.226519304293934,-57.54712895654295,3.6697836716888865,56.62184260185995,80.35525788154857,28.761641343090055,-74.09710360478424,-17.782131246143877,2.0557978578221814,-25.030494173656113,-4.22253589778915,18.525011452452624,77.14688748096886,41.009332785752775,-45.03959349714413,2.0279530541795943,-4.617637408962753
9.831805240750866,16.892112738937836,-46.71339705478926,3.0381123979697726,42.054572749471966,94.42355368804675,28.40129136125919,-72.1211238292336,3.3008397835606553,-2.8490475412143823,-22.907426346022806,5.504267425999924,13.477680710724734,73.73429712008686,54.25620058504545,-48.70988444599884,10.94065800419878,-3.5940477784621514
26.21741301148551,20.002049703628135,-39.591251079417916,28.970608795919976,32.875703682848744,113.57840578501234,41.223034199097036,-64.48608641403057,7.978610882307972,3.6747924851083447,-14.433005603267766,38.378422666927946,24.253958438634903,59.30430513661671,80.88083701215007,-41.24804333416202,26.109643211965476,15.30621978565756
21.910208720954113,23.89222486788025,-37.74300776050526,31.759309841016346,-1.1887134168747338,115.7493952827372,46.91412209729765,-46.1139293524817,-2.2838246831386257,9.224828646880415,-8.884671175338495,41.762402880409596,-3.932160104372848,59.15031770837267,90.6094218286414,-30.466704821652495,40.60125031484886,20.539839732322687
29.72331854321666,12.44915587739088,-38.62935799575155,27.712882818391286,-10.723920806345959,129.35514491795112,29.36108816004648,-26.575245983568614,-1.3140670147993028,8.136954431465437,-10.559319007085556,34.99243083314089,-14.146227505208465,60.86984076903647,99.06726868993347,-24.373815665369783,46.99352896807707,24.02117453704614
45.35991819992144,3.934886052508432,-24.67170018815107,21.90935297108741,-8.132519511166322,139.4542302582782,34.267812976809694,-15.049992909183842,7.762960082706987,5.977702009431585,-6.761399856016132,39.55319479872478,-6.583576865552857,61.14253739528911,112.79751725657174,-16.816946971263103,51.04832028872313,47.72332735515871
54.75740004781679,-1.2599066075329066,-18.23344818570064,19.62205920006024,-3.7663071431186523,143.31243334507045,32.727661596523916,-4.018647299426348,7.661958787035506,1.965848870414515,-1.2018665572017042,46.460163353883054,2.837560049154158,58.40589717043789,122.81572217393743,-15.804038894174482,50.03123837739405,74.45864077710826
53.716578702648704,-23.15501068706139,-9.157988347114458,29.7376750785468,-20.867912009989453,152.7465279885859,28.451682156117325,6.811646858313711,-17.144531135436093,8.894596673772693,5.533373865171409,53.857815343006486,-15.277819135914697,58.51938499970261,128.63365699726916,-4.73327786772542,48.82519728333069,87.62539685752216
59.71827746122297,-30.1092691495065,4.703358046123142,32.91978568170202,-30.335422573133712,152.71739751087873,39.701923918219755,9.23752821889249,-10.796163646340514,5.376936184343581,12.858412372897881,59.792967128142465,-19.327542155091223,58.943887108062036,127.02867395084027,4.676408171348939,48.89508622145546,101.4817163617295
45.71138036340427,-30.71651282753464,13.096736225322495,39.226954388901,-29.04389491184739,151.23313954998162,40.40381993799581,18.68881466529482,-26.418632507830374,17.38986015331062,21.45688839504283,54.89044210907882,-10.971818036565994,53.52694022035904,124.44623682687448,14.280520231058865,55.51444220621774,107.33614376775694
33.47363165262742,-14.33199670170216,15.43640694614809,45.436290569663306,-27.14984638239035,161.96598794097895,35.830935648732165,26.66918394201693,-36.76531319122121,30.480054799888116,28.887391382516924,57.41219947506872,3.8322012388396125,42.07319002092929,123.23017955446484,28.180690335404506,62.62850020460394,105.28641264859019
41.364744700653894,2.8331467256732257,26.27357967704362,51.3522923208149,-15.96185899472382,145.85298377200672,40.43666183619256,31.81133510268844,-11.46453536829075,31.561412459774587,37.689053103360116,64.03783322886488,6.6271705893044235,37.375748381783865,122.40396807667926,35.73223466869616,67.01456534221036,104.31710327057493
45.94691004224132,18.23986955506962,37.209893688069826,60.8810817506196,-17.062422590533238,157.19195432462726,38.98643405751736,31.47842294559903,6.31909103346961,40.84911248358761,48.447847961294606,66.66170355717924,15.968026104045961,41.68067793847227,120.4051170577499,32.540567637241566,68.18435506132576,108.9205320751484
37.356733952335716,25.54047296919832,36.624281305970825,67.08877089014305,-17.65851076474808,149.00963670340934,35.288944973099746,39.04947811114569,3.7925112877605844,45.257042340911724,52.27694687990382,65.28375860861014,20.233459849412338,33.01490842987914,128.46430029241918,23.976880451494957,80.29824332949572,103.862144120941
49.38382233628125,26.59050923464703,41.21641773171186,74.272111128742,-18.433873431505134,150.60344916820515,39.30532265926232,41.92657892150831,18.163431583767327,45.46882825324797,55.13349448036136,72.69710611355168,27.04073640245293,27.003586174271035,137.1087458755719,22.248408865473365,81.2855779533136,113.16578805457779
37.593920973119126,28.616707205363916,49.03334779351562,78.71991858390649,-16.849563162307675,147.6177860367506,46.15271649778935,35.32442957544675,17.40021826261983,46.074403334511324,59.55661156853857,70.93266138978956,29.749088009764378,35.65850770702566,129.05305796511115,17.784715266076105,81.30275635752085,115.83508632112934
8.139474704533576,31.130835116305747,61.051846285703036,81.40858051111809,-15.054212043018893,138.09956035048282,25.26428804830755,31.25487235583723,19.764971694937806,45.31594478033926,55.09693650563138,61.55288363631417,29.53036388979247,37.00656258131745,107.51996151469223,5.507620726104658,78.49426926053606,102.39726667849523
-25.307436012211426,46.63314147090381,67.7993073473657,75.2088915533634,-9.336995648384516,132.107572772594,11.406224893848327,17.41297915410349,-1.0121394435961655,53.54518666806891,60.1141379037811,51.686719230737936,33.806506427010795,42.47357405504923,83.93542713663523,-8.625726446235841,80.8680344413385,86.81740649230639
-29.34787762692187,41.13879128112693,66.34619103530609,70.76535510235918,-16.397565052439653,125.63789486117759,-8.21460691599831,6.103579410124951,-15.145405875651502,48.886805857562194,61.717404369266795,53.44365544027123,33.10466680161949,40.14515206884096,65.13550729048691,-31.25602385778446,74.65428892779389,69.19317602432588
-16.67738038840291,25.39019534933978,64.79827917192166,66.2222840968144,-10.063831134763312,115.85847645145063,-14.066631382438281,-9.90003829426541,-14.529138917001319,44.13397392063039,61.078635868204714,49.0499073574257,35.33507182758949,45.25574490466048,45.456059501527406,-44.21890059349501,72.25553941554088,52.258996559009105
4.598428747065206,16.282202913773524,50.94854057592965,54.645789530642716,-1.859600114140001,111.36320831973376,-34.470567160091235,-17.41411037851355,-6.487575151590972,35.18507029263664,56.342339156466,41.43512746949418,38.251541289887804,48.43003692784154,23.33456237284137,-52.397209923282404,69.0818411543603,33.671078994306086
4.303263013523434,13.619559503408416,38.07861101671782,44.04361745437501,1.085912529667496,87.5423349166039,-22.55067493144871,-32.84516107337467,-21.68515342831519,35.907495457263586,51.024193398926606,34.7985155597527,39.51023524259419,48.593607038773676,8.439130818149657,-63.310561657769306,61.12919121737384,19.484192057700376
15.738356149921898,3.7302433370768293,23.25893801717456,38.12657445456134,-1.2275011436619678,76.81820625710799,-31.237427688522956,-40.37265277355161,-23.402474320126636,36.437815871854525,40.827255230859905,26.991515175758167,32.079740293974154,45.35562497674178,-15.343767238269109,-58.11097338077411,50.643677488957714,2.7646173040575235
33.92309712780701,-16.022441883583248,12.153846701944392,27.51933133999641,1.7469794454096288,74.5032164517046,-46.07745957310051,-37.457492807093345,-20.13567455541017,38.533865870882096,21.06394700060247,18.111694969709816,35.10091556997816,43.98939611184772,-33.17016362280614,-53.204904541796964,40.35967207094873,-12.97199315508621
55.341730341992964,-23.079494633681193,-4.513975714856832,5.483319612744744,-5.323133600285409,64.97207810845678,-39.62892709836637,-48.7094324061216,-3.4861043447278597,40.63311340603273,3.6485035562015113,-7.563933011678664,27.674944987672877,44.20172138412571,-44.94241207810367,-55.62366928970787,33.01154266934002,-24.40531022653917
73.25578404251215,-24.276892282390296,-20.59192288001123,-30.91137533389775,-14.430135549577514,82.30727902208677,-40.114900438157065,-62.31187775541013,-1.6767690359703833,42.73554704263025,-4.778361535296494,-38.80482292551403,17.809701888399047,56.93002867260151,-48.21908352211695,-61.07028175963659,26.25545020553702,-28.6056432148185
96.06372544722629,-11.508977051885951,-36.47046096379684,-71.21555536117265,-11.999837673709884,87.34798741849816,-29.566340442053026,-85.29617079937911,8.339636948325637,38.88402996687736,-1.0916166500983167,-69.2633181950889,9.020802012204797,60.591705288391616,-39.48451645951474,-69.64235233741915,18.626471072444915,-25.377725486723293
97.49551324943187,-3.330653302248992,-49.90330121934003,-94.72595694932984,10.170765931385457,80.38708417077395,-15.112248925166561,-110.92390393562494,4.004251829220276,27.613678187347023,-1.3071505125646823,-80.77517772583622,17.812339090264377,60.1670308447545,-35.92649283069085,-77.53117986265215,8.269046627605206,-25.56162228866117
105.4811411385152,5.141033170224021,-68.21461763681707,-111.69681722336247,23.95599479279197,66.5026651627373,-7.9832545343812775,-128.06206298290553,14.614471065710944,3.5532948981628003,-0.8350719410330427,-86.62195457461915,11.07827352776405,67.47231384686557,-36.76377272404591,-87.37347221203154,-2.668418380012426,-40.38803698245887
132.3253536141429,11.757680217567927,-98.63093081443837,-108.0655927353091,38.82839141693182,80.07013419418458,-8.569978509218423,-132.80429819122696,36.654686591078836,-13.179649716828457,6.477030842533214,-92.56555743514964,23.291720685859204,74.2063555241513,-38.48070165384567,-81.49312564518212,-8.424186646248998,-45.7355780715302
131.64058262034746,19.83972008496917,-106.48359533534929,-98.48111207956084,32.22875264366496,81.14734084114829,0.31534938154566383,-110.4042422727768,29.011057485074442,-11.64751620620736,18.383000735731237,-89.23094672451226,13.436361696808358,81.54074521681353,-26.33098699272096,-65.35891932700501,-5.189679373511019,-41.99495382984779
136.82562312211437,33.293532411858735,-98.12022131746008,-81.38101517078374,37.751069069425455,87.60550302816003,8.906961327896438,-83.32311853261356,28.305301020835863,-7.670889047172118,27.753790418708736,-57.77028334695437,10.614134132988799,89.96345554075158,-16.037552843433794,-33.599621937122315,-6.246425865979781,-26.920120475180468
146.70841948929814,41.76746774163842,-84.38067979259378,-73.66025075726746,43.28550216676394,90.06931554878442,27.16595125517625,-68.74862391644231,37.27189563466256,-12.089811072421032,27.7533226014874,-22.50045048295526,7.402979900731896,95.86082163838489,-3.4011459667765536,-8.090510517739794,-12.375768142139776,-10.667574090862445
133.6516580434127,42.917812288939025,-55.88969466328483,-83.42456670708964,35.94094484025454,92.15193920224365,38.29519050872136,-43.438142591981844,35.30511681600879,-14.357283100830127,20.33471343963927,-4.027338193132572,1.0684117074866926,85.46276146355757,9.039101315462446,27.37965747305155,-23.57778962751067,9.106373161534655
85.3502799820458,50.319064913204635,-36.67094227095247,-109.99050981208511,21.576569554436496,77.44668484468232,32.52890593534946,-12.56745279718728,-10.70095377528951,-4.316939964728867,6.572156288960809,-2.5463697370116165,-17.471811443034547,69.41361598318692,15.130718956587835,51.91218404086396,-28.231305877391932,7.3035773719240815
58.93386958975937,44.83038256027232,-2.993469589394941,-113.41621068699627,6.344515555734418,57.965252735328406,23.14854926457366,7.261719879440982,2.47796763073935,-5.406682135774581,-10.116372836659313,0.39965921506283664,-32.885495975288784,51.521672544387414,20.342506797421496,55.741354068883325,-30.24271621681426,-5.822010165020856
32.33157394631692,31.432385063345446,20.728404697587777,-103.17461165783513,-6.142185476635859,51.969425780581595,20.212865016094792,1.4008128243429567,9.020613472660106,1.514361602577063,-13.12910607301854,-16.088116953065914,-41.65703520259088,36.27881109433353,37.9558828529966,34.86325939997319,-26.877696614917813,-4.586521894588458
-3.6366479029728254,16.86353270096124,56.85841334291668,-95.77000740571908,-10.903299705681185,42.173557026531796,31.143836951959038,-0.8527454193111552,-2.108294769196867,19.37587460921012,4.272289659824958,-47.224578764904656,-54.52885270342993,32.864471770014944,53.71278153777813,29.512948249467506,-10.714354379178165,14.916227048988038
-15.572071712479598,26.710230779768505,75.70870724644512,-101.94488089574034,-7.841486384229512,61.683381266968055,26.448821305035054,-11.022453671323703,-13.232663214054353,39.97455488998655,19.62648014788869,-61.466386406069745,-51.48118399682694,31.512482040495655,64.68343440201862,24.553530071098187,10.336935219079002,29.638878659390432
0.8220109413342129,44.56605759368743,78.84190752918413,-117.69539119404536,-0.472747112086509,70.94726276632426,21.85070625858646,-19.928361906440898,10.120730098427522,46.22024314001625,25.706735683778433,-75.51312405229444,-39.4478008526427,30.757566470782507,48.504182157334796,32.58291223124804,13.912448704540465,17.803619003566325
-21.44785083851943,43.575214560708766,81.78568527504899,-116.65406966942925,1.1438420795733677,60.10150723492954,26.23633648069778,-24.054661172231384,-0.896785186727481,43.7770305721448,22.12236545311732,-77.7436315109485,-34.835275705121965,27.474257500531387,26.952663686902838,43.83537914100029,3.9183921324311974,12.223304385381216
-38.142950709388856,33.11292608799752,75.26263845652845,-103.70391928514734,1.5002027167799667,54.146222378784294,11.089640494841221,-7.48300174606824,-12.007309110713027,27.46899633978183,10.728803789456556,-59.66179646874897,-33.737370819076034,24.591857194865057,26.982377921002573,41.41619954789299,-7.9264117008497905,25.300316970740685
-46.04084172756333,22.45676032682211,84.56619771643402,-104.33372090340154,-9.56041030079303,47.41697460220955,16.938567470445303,-4.1981314297299335,-15.495850330130594,14.58149696331197,-0.6613956548554576,-41.775855566238775,-27.85324985021417,20.840374816139445,34.53057295220318,23.079302424355163,-21.719728927613126,36.721689586147924
-63.98973452831038,14.145902937768629,93.48524659433993,-92.07833236597997,-18.268601227344817,31.417245296248026,26.204709605884364,-1.1137596808930965,-24.25320399414519,-1.7215756691324486,0.9401782195964543,-23.402315918695646,-38.66768681951546,23.15306011390323,38.757202527185775,14.997018172677343,-26.81697653857556,44.92473483255292
-56.44248657173034,3.492868491656658,91.96109852672822,-74.84813080413207,-36.24599212430576,31.34242601105204,49.7280599395025,13.098572225678012,-20.31032271899645,-13.920644634085484,-2.2402543599906295,0.6345713554089492,-50.55551405135582,22.740257288649623,52.748367172290855,32.98995564270359,-30.249624666818853,63.67902424699918
-55.3334616207968,-21.318841683711064,86.0485861720868,-59.38159527684389,-37.22300713594578,25.90281417216356,68.1723683192298,1.426749059120965,-31.0113539274233,-19.867311424902383,-12.644210640273329,13.537563583156835,-54.82526291706053,19.894471289931047,43.495714737742105,49.71400130432281,-32.50607694077554,71.40202124503539
-42.88924137123135,-25.522982317966758,78.57982871363977,-38.06151192025824,-26.08289465755369,24.473228168609992,94.72141063190396,-23.824178321353834,-25.691750817330323,-16.92489148737004,-5.759674212484089,20.482409621199423,-58.50836039712196,39.0296601055427,32.67922845349826,56.08703766006015,-27.82464361747367,94.26581806392178
-25.94616550569249,-29.822902534252712,93.0903780629956,-27.392123646793387,6.451464192963233,61.52651655033424,102.9099189117444,-61.57979194513537,-1.226452764114475,-20.914015752670394,10.502999035086292,21.566655857795798,-47.737476489147966,82.29380850871792,-9.975025060567177,84.72680075128258,-34.07680998412152,117.91453877563015
