Fp1||F7,F7||T7,T7||P7,P7||O1,Fp2||F8,F8||T8,T8||P8,P8||O2,Fp1||F3,F3||C3,C3||P3,P3||O1,Fp2||F4,F4||C4,C4||P4,P4||O2,Fz||Cz,Cz||Pz
8.033534453741925,2.396161070602252,0.5699612465476722,-0.27093923776394924,4.177992368375406,3.649649244368094,0.42018172180790536,2.5821205816349106,3.258283230307514,2.497317000136933,5.8970769573948925,-0.9239596546291402,3.297864104338553,2.301904767857253,1.0826922474430254,4.147482796516341,-1.779596256663994,2.605971841775454
10.424346331722354,-1.6466997781761776,4.764931637340495,11.44675764217142,19.542083843786372,11.25234077370612,-12.037693350136408,17.13601739867854,-15.405131257602322,9.431528444532459,4.672613712643654,26.290324933566858,-13.034403671873115,11.597011025062157,9.01428316052353,28.315858152291874,1.0686827278681963,1.0038618181563406
1.7818720007495656,6.808762015552384,-6.76425709385129,7.2458350758855605,10.100246126497014,14.363211620372887,-16.29323971217211,13.721375956655155,-13.756571944637045,4.939447211386245,-1.3380916813566515,19.22742841302638,-8.664056463875863,5.461912272651664,2.980607660058454,22.11313052248954,-2.0410981319834804,-3.918872106187324
43.43529202204868,-6.80831499974286,-10.677452016610793,10.07588648732918,10.32568413346191,11.126828227981523,-15.178612944747186,6.400947915886221,13.868152665518789,11.677688146599465,-5.2991263248033995,15.778697005792075,-4.294547283766949,-1.8453466029163383,2.610860635613407,16.203880583624283,-4.956490056383011,-4.056693338215792
39.68013925204483,-4.411432953967779,-1.9941547865963498,8.803954149117907,17.386345799552263,19.31696229576123,-19.533902579962117,8.846853766200411,19.61679260152581,12.067877028921352,-3.011336320515447,13.405172350749549,12.867275861676928,-3.1957358031739433,0.5807007258351907,15.764018497186672,0.33045328072176305,-6.831646103860988
24.110792787351045,1.5968550638021903,2.19548428094412,6.555110524775245,13.020255832046773,16.765369221188156,-9.92529786171399,8.363623912449794,6.126149639126606,11.188235191053545,-4.826570949854393,21.970428776629355,0.828572902794827,8.539774400378898,1.9683196040303352,16.88728419674089,3.468023541353525,-5.310086920163334
25.24342739747565,-3.041500371569014,-3.382097909926808,3.1340650191370187,18.907454335610932,16.167616976811626,-17.70101195890609,5.537241135482169,-12.736334266795058,17.046715985440656,-2.8346818656271324,20.478194282180645,-1.4452294829477217,9.92334099114237,2.5744236775566893,11.858765303222693,1.6241588584663869,1.2891900200382418
27.355259599771045,-2.7012794426974907,-1.2462102903342323,5.474542150332222,20.887590433908944,12.836195069885257,-15.907586131717029,3.0045004425938053,-7.185005485924639,17.826751308296565,-5.629678461890753,23.870244656672284,-2.8409970966708853,8.279309003457033,3.1802641587442,12.202123749117217,-1.7831067877600872,8.571530292996728
45.2903764830152,11.211381170878687,-0.772039567575975,2.2482690922143442,21.30447095689257,21.224509291795776,-17.24060299558447,6.527244177048814,34.20613446934704,6.985290794572691,-5.30141158826703,22.08797350296105,12.266497242760273,2.045169016152002,1.9303333451434606,15.57362182607475,-4.4099740820590245,10.482097932025841
12.739280872072941,-6.519069200937565,5.364701926104411,8.885193858030469,17.71667306731063,8.32430288437852,-11.446075000286605,17.863346957293555,-0.08801077396335621,7.764894575201927,-7.318841914623704,20.112065568736398,11.845503754407723,-2.9196002528417635,0.973090960550835,22.559253446558294,-7.037690918643404,2.333265415098713
15.640890149705385,6.022360563047669,-7.348120566372275,7.611632835841839,3.190517462094281,16.42143583890594,-20.204094299519863,25.29391485431635,0.9694521334754418,10.985752793954754,-9.142994723948139,19.11455277882101,2.0484492962738634,-2.220386306427414,-2.2305747052640914,27.10428557119452,-10.34984697864696,0.8244504377150816
33.780155745282215,2.2529131821054666,-2.581868786086887,7.705096436035648,-5.476844742631685,21.394503902385225,-13.729122587293215,17.002395763733837,24.87837518466219,6.686793400161344,-11.750573133343718,21.34170112593644,-12.33944737070448,8.146792266514563,1.8897845197755392,21.493802920589907,-5.752546160034915,-2.4429683475010355
38.34814543509044,2.6806997770577317,-6.313541724322581,3.2084875944415323,15.152463451931121,18.848965331128188,-13.017644941702779,10.762532384383675,14.997311724782007,9.223721354174053,-6.059532100967065,19.762290104357252,6.280033487423172,8.162112671042394,0.7363099139321692,16.56786015332504,-1.839654159589921,-2.5861594096770437
21.04404981063735,-6.268718879322184,1.2813427595427664,9.55175430917786,14.003462861356452,17.183441295559852,-9.28053413214365,10.675983317107535,-1.3295285086689566,3.7525770229475395,-1.640453914950033,24.82583340078561,3.6091784422776736,8.8609133383716,3.0005302361322075,17.111731325082488,-0.17367892432888343,2.5432923243398426
25.423316776156355,1.3816037370255971,-2.9421378005441303,8.17995096818953,5.13888650735674,24.015289959531707,-11.404712251726407,6.684034347993197,-13.262094008261775,21.4261960804579,-3.0833749696888084,26.962006578397567,-9.804986152098909,13.270597865270952,3.6042330289564846,17.363653821011702,2.9563900189737824,5.621001447103394
36.34908963079347,-11.087653989229509,15.586819652852057,5.538513380863693,12.973187392430559,24.40293039217679,-6.108792668332343,-1.0179665301078846,20.31356601243174,3.064004269224725,-3.7476902882382994,26.756888681938168,-3.102623640823701,12.79729862555305,7.2349800053019075,13.31970359612205,1.984078275474395,6.060966980309715
27.25855322147678,2.808581988978448,0.32434777589605757,3.092332544691317,19.635016559793357,18.932361189314467,-7.064923244552813,-6.375207435009864,1.5444379416874272,17.612382088424592,-9.297668788019159,23.62466428902539,15.415349208810559,4.315981293142934,1.3925707838658412,4.003345783713173,1.2063436417907174,1.1287180692625687
23.835780445333988,6.741623178738569,-0.5843221507218301,0.6461178007689217,11.159334176297445,16.881118635658616,-13.78487767139856,-6.653240178348762,1.2324251910097652,13.898689360841917,-8.795762092830635,24.303846815173227,-1.7127377713643996,6.9675761470542845,-0.25092047457257793,2.598417061079934,3.943566943179257,-2.6327303730012535
26.569144257787485,10.867866524205727,-0.5183338898097731,-3.4602876939787834,18.894291351336257,15.61249351213149,-16.209969188930685,-4.977081519247965,10.68603048715227,13.407644269546184,-9.175786696137974,18.540501137717737,0.7873882928051066,8.447220998268005,3.4763898533104216,0.6087350108951837,5.019906035870774,0.4407174084769725
17.001412985792438,-0.3402755226206686,6.479402636355802,-2.000186519484334,10.905823105620815,15.517165318055007,-10.043315724300236,-9.549951254052537,2.1704970040851017,14.381422546957376,-8.680018539139128,13.268452568212334,-1.108084278965435,10.708083579786894,2.3204300109772023,-5.090707866484902,5.314299081354679,-0.19802714220748108
10.074298992217528,5.832534317563819,-1.2711616113150241,-4.251039435933284,0.9636863725765679,12.49355626527189,-8.85939960774061,-8.06694431205168,21.292030521568186,-6.910791894979413,-12.386773590534057,8.390167226549615,-5.5436655692065395,9.25792064395674,1.2617359364480438,-8.445092293150307,5.9986578725500115,-1.0333373997256894
19.362303141229468,3.1163595144703704,-9.023737207921032,-2.4978605237485394,7.329893669091974,16.50280189285276,-10.705120386565403,-10.293805469628387,18.34288219406497,-1.9330877198390413,-9.358496553735245,3.905767003609683,4.277769064512377,5.073322267987949,2.741742573972738,-9.259064200729327,4.045611782767311,-2.4558956941138916
22.69719022832879,-5.85204411022121,-1.2507713653870889,-2.8930630756504807,0.7071376130654441,12.505655003170174,-10.111696806266405,-3.339684381972816,-7.16519605286093,23.064453925289104,-12.290803265090647,9.092857069801335,9.410611880093334,-7.509847912806613,1.6822391443553752,-3.8215916836519215,6.584195562588053,-4.563410436011776
24.47362715158081,9.78716747345638,-6.956639307307482,-4.264729995369997,-0.05662372751727407,16.615686236543553,-10.301884274179894,-2.243844992088932,12.444650057906223,12.123961910682066,-11.906315953166272,10.377129307005257,-5.282092470307435,8.911337037637395,1.11060758503223,-0.7265189096100215,4.043970799301282,4.753628228785031
10.726622414362023,-3.287132358343807,2.472351965135526,2.762305854088649,9.628537230591503,14.08661908103641,-5.70923932313616,-0.8538222595780347,-1.1490469736553388,9.679721732384523,-9.474690611504089,13.618163728083523,1.0205863167814861,6.289281346260011,4.347203357259315,5.495023708608534,4.43289270441,3.7174951219445207
5.284726676123281,-5.425900233380523,-3.7260089652118613,2.3675145128726944,16.285865735121185,14.781926272498504,-19.771664995869987,-7.079866370504972,-4.195579746225566,3.7198448664001225,-14.175857923847387,13.15192479414127,-2.834175362358841,9.526721049553721,0.6496676644340322,-3.1259527103876756,-0.35461023441146194,3.168151115190802
11.663677344655298,11.183485357444187,-17.836782265113044,0.312726440392914,15.911407433143271,8.154611594934398,-18.30899529475994,2.9065373672447548,-2.7496886034353754,7.81877050507269,-16.830091078274087,17.084116054079562,6.298503004506744,-0.4195909383211207,-2.364702802620142,5.149351836994351,-1.7246355658674368,-3.4375197724787236
20.195413584208065,6.110723755124231,-19.351862461099664,1.9691409737173249,9.774725562692051,5.533011368080429,-18.02074443161557,0.49169650321098296,22.427240531289613,-9.273965061219764,-21.148482525801935,16.91862290774405,4.101840844485848,-7.24079981725292,-3.524021841368434,4.441669816501547,-6.51320337934747,-5.357212576718074
13.887540704354347,-2.675155597121096,-10.029107104580344,1.2820016817836422,-1.049932474800066,4.768692527253515,-20.274158972316236,1.0079009399285903,-1.3221120133242898,6.251065963733748,-17.853642760859863,15.389968494947546,-11.865607978097216,-3.6125629077401147,-2.730638010279873,2.6613109161819057,-4.856859797795287,-7.962148466364898
2.6035391918216035,0.4510925191938921,-16.919726674042423,1.6693527453355577,0.33223429108086666,8.596107781642147,-25.55756333998861,0.6465227816027574,-5.832604906209991,0.7797770920300362,-17.688016409111633,10.545102005659368,-15.431571068162102,3.629090138415341,-4.18384003404804,0.0036224781315778998,-0.4665764197735012,-8.908586101050917
18.863481870705392,-4.042071548698159,-13.070199543407277,4.693741091360794,5.522671825904522,1.194737994738528,-16.780886218103657,4.095156771895578,2.7433626605557535,10.640860396269868,-18.893854686079294,11.954583499272106,0.6306230760887217,-4.7544033231531895,-5.051558928698944,3.207019550198695,2.458386859348429,-9.954408140584333
-1.200751337855646,-1.408319045677474,-13.617488243009422,4.300409715843477,7.001745473207985,4.928239220081069,-17.382015904402856,4.127152583655779,-10.067353421718028,-0.10371983671195029,-18.24853996175014,16.493464309537245,-2.7421221533939533,-2.3954412711703315,-2.6970407538223116,6.509725550929566,-1.257806853774883,-6.607400744373217
21.708963136236985,-1.218096851821198,-17.78034178459712,4.102717679850623,10.33595749813642,8.273030495008365,-17.692864222000793,5.332445651840242,15.111190736471276,-7.039515972178506,-18.974862644762098,17.716430060193314,9.021033436775973,-8.825559513511655,-2.1008348459080817,8.153930345629668,-2.0446752889105877,-9.31698313751541
5.853131972983503,-0.736974890488798,-16.28128388251692,3.026452301383163,-5.568753121830104,0.29147612696791114,-17.42048345983507,8.00403003046543,-1.4096832075284658,-1.6702920501291505,-19.022092302703868,13.963393061775632,-11.54157092012386,-6.759325774840608,-3.1652875838981314,6.772453854633104,-0.19516752812608051,-5.485346654607828
7.580303003328732,-2.9923280145582853,-19.179068867211214,-0.1979148051290578,5.284419864865699,-1.8286315690198212,-17.34615844487473,4.036333287597923,3.261646732849128,-7.629208622386427,-19.073912294530473,8.652465500549667,-4.858712022606453,-3.325742749867856,-4.327878758652682,2.6582966696990464,2.0446129444839194,-8.491640249067569
29.234290354128145,-10.816213818876468,-7.625758034038551,0.4844182557276424,1.976893814330178,4.451837567990208,-19.22774878983782,4.9529879072007486,13.890610161078001,8.58035175980408,-19.716345251678497,8.522120087787457,-12.825557878242353,9.678452145774894,-6.174557943088367,1.4756341752427344,8.873973893671412,-10.425624227240803
8.607138513818162,2.256633959677017,-21.27039704852543,2.6320297522489597,3.551938386143326,4.484250320990065,-19.94022447657835,6.066440641415279,-1.2615216724076799,4.1843115409389835,-21.828383987930696,11.130999296666943,2.0584670518101116,-5.149643059469408,-4.017756227384075,1.2713371070178452,4.960675455199738,-11.580307733363346
31.735338098693816,-6.840827540580143,-10.01456639997372,-2.1536244360723438,9.521275100931561,2.565573966533842,-19.483600543151873,9.232205947376356,17.571824726968185,2.9135142688931888,-18.867029982007363,11.108010708261055,10.886675842472842,-8.84457744841128,-6.451356832053767,6.244712909686755,5.246377606418902,-13.029960463924459
19.906768715321466,-3.3424203997925868,-10.577575560135662,0.48316477717363315,-2.1857351712492914,3.383405669031548,-16.10005007664856,8.883809133075363,18.632083354344736,-3.7282506604383663,-18.840284866719596,10.406389705426188,-6.849051932932445,-2.187600229106141,-1.6587747477905113,4.6768564640432695,7.973267160323065,-8.915151163797013
14.72364243765691,-7.560930209654739,-13.38896316464292,3.3157456572909547,4.857254735140616,6.547139054371094,-22.68040456046623,8.82991764842706,-7.4558528286884815,13.068063001432343,-19.111453435431045,10.588737983382181,0.8052073441257044,-2.26880309087242,-3.409752329684437,2.427254953909184,8.453799127273118,-11.247813591014303
29.07679237160133,0.13287511668381913,-17.66746244488576,-4.300554690601765,-8.022210195787512,1.0214730442026454,-12.466450365190319,4.1876591484722026,22.121815586084082,-2.5577590515072206,-18.11807242530399,5.795666243568265,-5.213635639120277,-1.9591580368563024,-5.942483342850628,-2.164251349469972,5.320792087429013,-11.72707009443835
5.8364485973497615,-16.980286398319862,-13.451977038819766,1.2674573671847218,5.953937660495813,-3.23248031605735,-22.665791048073707,5.406425558205745,-11.972634313425925,2.324791562278442,-24.063449360443048,10.382934639027681,-1.0770846519422428,-6.141538966590547,-6.913181885707791,-0.406102641182871,-0.7421224260244208,-11.720157810757037
26.1561979110629,-15.052059089163505,-11.094218512210965,-5.3712103503737225,7.331981438557737,2.2815239345337712,-23.88344880356554,1.7438782529138526,23.368332600121345,-14.66773095072207,-19.466902856496702,5.405011166453276,2.374859696775284,-5.1478163499783385,-7.982028822396233,-1.7710797019546796,-1.2386932522899352,-10.250526604181275
11.909849651394737,-26.993068979977785,-8.152732453962917,-3.3177814685075164,-2.423202522340235,-3.628223203635571,-17.681946882331857,-0.061586853304437916,1.9709511806819684,-15.644109761593413,-23.37174306849593,10.491168398393901,-12.338528606470328,-2.6889708995138855,-5.7310019426233545,-3.0364580129982013,-5.9346662127431395,-10.247934414559182
9.97311727720627,-17.060548689451423,-21.71761046742294,-4.974769275263162,-0.36203493159685696,-3.969255270170322,-20.858413453567707,4.189323958429352,-12.687212556628609,-7.538030509875018,-19.664490412893013,6.109922324504293,-9.083875299492473,-3.061929605503191,-5.433617315399262,-3.4209574765042063,-1.7438755049529138,-10.833485768069067
30.111769774215425,-13.770521735200024,-20.928991742566627,-3.799085753320295,3.652062970341499,-5.089306608344353,-18.471208627398582,3.4612959887607646,8.007594002730812,-4.998140025665807,-21.626641787980514,10.230358354081822,-3.2910919601581425,-4.411181660824012,-7.578161145495483,-1.1667215101565933,-4.096215008537788,-13.960358090699195
17.149175756135236,-1.9859996598411032,-14.576055971740521,-3.892336849007511,8.740182226619552,-2.3984455530671926,-15.110238061410465,7.031823526205242,16.886716972778352,-7.340819634019898,-17.929940270400337,5.078826207224768,10.21569396877369,-4.881216084859087,-4.449668865617644,-2.621486879943376,-1.272726399479017,-8.202616831610397
23.039241633873253,-21.74661503476524,-14.182397591957448,1.093249389861958,-3.359663637933643,-8.103872607783938,-10.970806664452512,1.619461922413373,5.160994208011127,-8.21830140790358,-15.60578077408948,6.866566371030226,-9.482097323840279,-1.3469710976805014,-6.399857232144303,-3.5859553340852113,-2.2578918123168017,-4.400290602645879
17.117422574578494,-31.352469771781788,-11.935376532124712,-1.2448414961388852,-9.990867717771335,-1.3068152118952998,-19.92030056399066,2.947114382570185,-18.478001066706238,6.334486653749973,-16.31437919871238,1.0426283862365473,-16.87594463841596,-0.5468164926795713,-7.959888496657469,-2.8882194833277204,-3.8289754081317176,-4.3112365848648295
16.571463380548096,-26.50657808197813,-14.085065362704164,-2.410367890837622,-1.1923290263379478,-1.4411483045192295,-12.17309368974313,-2.071350198845277,-11.939748592748298,0.5748271824448405,-14.684590853475667,-0.38103569115887126,-5.520421832939509,-0.5275830076978673,-3.270293348921522,-7.559623029880361,-1.8843212259818136,-7.837813291798145
15.053590505489927,-24.103681606284326,-6.471067052008719,-1.1337612719525632,-11.241902524679219,7.411354302915971,-11.069368299714096,-0.4474472813963013,8.173969992264023,-14.364281545413883,-12.376625046974079,1.912017175401136,-13.306715781578617,4.0819197094927375,-4.63594154563561,-1.486626185145905,1.4276317910917058,-4.14002621123279
5.434765568624389,-23.069495618682325,-6.769405968593954,1.4131030459480929,-12.990724255957705,1.4222177791954724,-5.183148906813955,5.768014721823655,-15.461904640173934,-5.083876106815841,-12.12492295197443,9.679670726292343,-20.21497244247821,6.25034920056995,0.34570600690439335,2.6352765732574865,-3.2682276016891296,-5.425105888917593
6.660563958064266,-22.427390956440675,2.59833956365706,-0.726879861900452,-1.5558946106918512,-1.9278093920636739,-9.456047660210086,10.03197037835467,-5.0141195010710575,-7.814961386810186,-13.050586095152795,11.984299686445281,-2.807315850928751,-4.471657708475757,-3.2669782458442844,7.638170520643874,-7.182670511495334,-7.689096389628585
10.723022003368996,-19.052266006896563,-3.5634971376551814,2.21208088852847,-5.258145190307939,-7.814575183611666,-6.700278058886509,10.391267068917177,6.411385583151116,-15.037874262615837,-12.12624247849607,11.072070905336712,-3.0765549156210605,-12.165874162478307,-4.633977876507263,10.494675590723558,-9.9250332228529,-5.267858575986036
10.688408465488731,-9.03775508440853,-8.848383666810609,0.07359682919155419,-5.542491863006351,-8.034817893419197,-8.53708485691557,10.459242389535378,-6.7716832249918575,4.302564200568024,-12.574612253342279,7.91959782125668,-10.57329107188415,-7.55479944139885,-4.145915994378532,10.618854283861467,-10.12807414231348,-7.34122819133403
-6.627105901712863,-10.059850941658878,-7.494479538333935,4.674270649488481,-5.729283792654842,-1.3189760741325847,-4.810034731870278,4.571747652893265,-18.976963916945206,-3.9936737539748153,-8.438584803264941,11.90205674199648,-3.7151423631661413,-3.529239640467002,-1.998099655774046,1.9559347136481993,-5.740947018243236,-5.998934835103114
8.38657400032761,-16.45434432901586,0.5959085251347869,-0.685355465347391,-7.869318998189689,1.8835822185386437,-7.9216303698551425,2.201582927489195,0.5577657706746195,-3.207259354283962,-6.35889482248923,0.8511711372258048,3.6305145085669555,-8.097113651186117,-4.440615240279824,-2.798569839112819,-5.552814278344331,-9.346575872062079
-5.990282977846981,-16.892874985946197,-4.01107254297245,4.112228309173684,-14.892314610211063,0.596289053358932,-1.0747082554527587,8.133975795668174,-13.500488155020445,-15.213507443592764,-3.894104034882684,9.826097435931498,-11.778839205421075,1.3981902343041983,-1.7076791875174222,4.851570142002472,-11.516796067464753,0.48721182376599437
10.790080253973796,-14.891057099312594,-3.151044209107557,7.934054550984502,-5.9971563310492995,-4.985531271407816,7.0392267856358615,9.966390623477714,3.1071015288350123,-8.27363305295438,-2.9973693648644932,8.845934385549112,-15.762970051963341,11.284604585710895,-0.5376654722499183,11.038960745163369,-9.081853978485416,1.0411463098096885
18.49263062452833,-9.667562268389718,-10.69136509664197,10.291849102610641,-1.691953344156595,2.325891691130882,-7.017647063935396,16.09738948362344,3.7001693083158695,-4.653581027786604,-2.9850856805922668,12.364049762197043,5.3502309858196675,-10.664908463066082,0.8272758616963705,14.201082382216537,-8.013726436715174,3.643525334275374
-12.961262224357576,-14.992063387142672,-12.373963099211961,13.431754112508644,-14.086248562289406,-3.0557624119854108,7.243759366757708,14.808039047917873,-34.866134887817694,-0.05639040863039424,-2.197067410537315,10.22405810880836,-11.91674080086961,0.003776146933811897,1.7035517960067228,15.119200298333556,-7.433457738411878,6.145880102429672
14.67203970837592,-21.00105828854258,0.4927442312605237,10.908372433000249,1.1565895402231652,5.6277341779750625,1.873534825703409,9.516354790357125,-5.55889344929556,-1.025108901314946,-2.2934891445784515,13.94958957930946,2.1637684021572,2.7627130101367956,1.8958585320321903,11.351873389935772,-6.364433995939779,7.083347590443745
-1.636430106135606,-17.538069679446945,-4.904198728259706,5.3584763218468705,-11.335359536630573,-1.1162496867968077,9.391747506489246,5.691163824221915,-11.895276423420158,-8.048003831034615,-5.9110999062924705,7.134157968778197,-2.506633779384163,-3.852947041712991,1.7948392210280253,7.196043707355511,-2.560490268052339,-1.9426331909935204
20.243435083309,-13.978166433847559,-5.5175187967750485,8.305691960593656,-13.280242827127978,-3.26787147402886,5.481662347802402,4.016063110752417,10.969490226420124,-5.499814906846049,-6.213844994357352,9.79761148808971,-5.615108130301457,-7.635969378891404,0.4239291517534598,5.776759514839321,-2.7599732879535392,-5.40447531741842
7.9471951866788295,-9.247037418970816,-10.429337898889695,3.343531422970381,-9.853901039871356,1.0283711287827728,3.620091163700341,-2.540312724484119,-5.617950148217184,-0.21656157603851933,-7.498649188908573,4.9475122049795015,-3.059999362296804,-3.8011074472805966,-1.0449656138234547,0.1603209515297106,-6.1815833945324945,-12.872629504297208
-0.34102990714890424,-17.700292684385513,-9.483201797424611,4.437063540283875,-2.0328913570295546,9.331039330512422,-7.814192068903788,-8.70445464123527,-14.098243346934698,-8.116432625566006,-9.081889666765168,8.209104790617468,4.084488507896279,-4.36024582593471,-3.9790397762407115,-4.9657016423766205,-2.375904264967182,-10.967975962916906
3.5819516950476142,-13.067920677826892,-9.319786251730594,-1.402179556226776,-7.4932438131421195,4.45237505805192,-2.0629201821377556,-7.542672837329008,-3.729003119929346,-11.913984703405323,-13.990934913325727,9.425987945950794,-0.39279735006129446,-3.063271522422964,-6.13215117883456,-3.0582417232385586,-9.897868026245309,-12.483667695668432
-12.510974217161273,-18.494724711768114,-10.329670393799583,3.6971797316896207,-12.953484098330375,-5.697341050081953,-4.321742507496571,-1.984710063115025,-20.311674678839964,-11.51153623285398,-9.725569956496685,3.9105912771786997,-10.53470186185725,-6.160262122790131,-6.039419123384905,-2.222894610992938,-15.563640906344881,-8.532837835464287
7.630989113042425,-17.378806278327595,-5.969732598196309,-5.167571589875619,-18.31593209370086,-10.278096637618326,4.4526490986645335,2.402931169712171,9.787713029033021,-22.631959054863763,-9.860193709230904,1.819318381732412,-13.938658225955365,-6.619842402087263,-5.068036923194153,3.8880890882920744,-9.119121002479773,-9.760165994168256
0.7255630015446997,-15.481887842659836,-5.517403987341625,-2.9960417093881544,-7.760010784813327,-7.825022870115617,4.338125593993398,-2.680669132185523,-6.108000331923057,-8.75123355787223,-7.558734709140234,-0.8518019388810139,-2.0107506439787954,-7.5670419659002635,-3.9992510094600613,-0.35053357378511674,-7.556715596571103,-11.185091824812165
-3.832337267637701,-11.827306350230401,-13.36722757688282,-1.8977804678137487,-12.047884467324344,-1.0725341903466639,-0.5636369233608658,-7.762722995457441,-18.29098991463598,2.102894106613582,-12.000988238292088,-2.735567616221232,-11.177280676571469,-0.40796146862500104,-3.711965124647048,-6.149571306649918,-5.602866928024823,-13.979491087035026
14.270032420240796,-10.32128437552899,-7.44849776155719,-3.337644425320123,-8.42527510446148,1.1901746350283302,-0.3891546835552866,-1.7102615842273012,6.149437875222005,-4.522895877237683,-8.342942916433095,-0.12099322368717225,-3.449351072670487,-1.1584519557469206,-3.0342700529171847,-1.6924436558862244,-0.8160914347325621,-9.744779501491866
-1.901857518694488,-7.057423979421328,-4.753604006696358,-5.36246962673773,-11.150187438134203,0.23265565314574577,1.4436043654257453,2.5858791615851664,-11.498820305884049,-2.260987505208072,-6.447993082510642,1.1324457620830444,-7.733615771265065,1.8027760987908805,-1.4778603584392767,0.5206517729298676,1.8231064334532565,-6.879502606531587
3.8051252518606162,-17.953847246604884,-7.333300611627994,-2.601071597411499,-16.413943555366476,-3.847432376909275,7.669110783255027,1.805321151574799,-19.281811466554508,2.0526040062696076,-7.7809649418615,0.9270781983934882,-12.31110803091434,-0.11813988770385597,-0.9958737230816919,2.638177644246945,2.119451704120217,-7.922740067593896
29.43775661404122,-16.838189118208366,-2.589679992012176,-7.7489481703600855,-15.329662333887542,0.37586676755674286,-0.7558401043212015,4.346614445072682,26.64882496902051,-13.848059090642012,-12.04884295182007,1.509016406933739,-10.052774138017583,0.7937801928230579,-4.420367119992189,2.31633983959939,-2.954404876893407,-6.819688977116241
1.3620302069086847,-3.9056733123501512,-14.644144056278215,0.092665049690146,-9.069209173431219,-3.894577969680123,5.466129152823417,4.1549629112159145,-7.986268435232949,-2.305972210409417,-10.950674510820729,4.147793044465912,0.4086336857631663,-5.520192181704613,-2.0832064308710905,3.852069847731504,-4.511568112915023,-12.652494733954272
-0.6357514611117452,-15.387228683940997,-6.5820063914256615,-0.951558100696019,-14.527344936494089,0.9196265186696264,3.9714521662884827,0.5467454949230417,-2.4820896266370602,-10.782769286236494,-9.369299628467017,-0.9223860958006753,3.7408903603542987,-6.462189758458067,-3.652489748035522,-2.7157316104837346,-1.6730773731955044,-12.13967885753091
4.01044934320613,-19.641653805829637,-0.6691704403169947,-1.4088095774891976,-14.516278493181344,3.294866426243466,-5.142156585464754,5.143215785218786,-3.3236876990876683,-8.027945341609321,-9.550797085142817,3.1932456454441365,-2.2044335992341164,-9.747155183619183,-3.4640496425094196,4.195285558167704,-5.767189447654898,-12.117255977694123
3.386315646053866,-8.074973129708429,-8.91747633099191,1.9436229175924553,-20.16896268848989,3.9147451246578573,3.7116881277950355,2.807405978852814,1.4032168128521083,-8.006528746792679,-9.346645173874059,4.287446210795503,-11.372516859643348,1.129088487259525,-2.7874179337290963,3.295722848916459,-9.176559472007321,-5.944471258696115
-17.93814877185202,-19.652529855493746,-3.3967479440034243,-0.07408169167762235,-14.199947343219915,-6.302908354754569,-1.2057214087068182,4.183991094847128,-15.059561779215977,-16.57795512506557,-7.487239734369776,-1.9367516243397311,-10.77483792097893,-0.5916606615607927,-6.407804803436404,0.24971737412854544,-14.244932039213971,-10.418426205850356
8.885689107018774,-13.748608368193835,-5.005678769423026,-0.9188486961312061,-41.82473534828021,19.615277545956566,2.273980104516255,5.659615538135733,4.0271585803902665,-2.3940608153473155,-8.660096708845922,-3.760447782889692,-4.0246905210852955,-4.655321027808541,-4.461759149375662,-1.1340914614167028,-6.811893653572321,-7.472407839079789
-11.553857019271646,-13.898627823188964,-7.298794670447016,-2.250853935301648,-12.026281511221413,-6.3203227864329286,-3.5251996109180554,0.2029022763606152,-14.97052322935009,-12.23287400232066,-7.201009609383055,-0.5977266071179628,-7.040243101716958,-4.225831925345773,-5.250169292361602,-5.152657312803139,-8.752736959012328,-11.559729427219619
-8.162026825494547,-20.98141126694384,-10.08071656424374,-2.0192795005975186,1.4638523019644953,-26.49164470294898,-7.470219152437542,-0.0766091658384358,-9.942249645631883,-19.2384865689654,-6.527939877937685,-5.534758064706262,-2.2430587174053196,-14.440124227787358,-7.796438018699805,-8.094999755384814,-9.422727197338586,-11.840348366272456
-16.193339211937136,4.359207480523711,-2.316055972024003,0.45948377717594324,-1.7449324131068709,-16.972544172739095,-0.08821841881369252,-0.6477729761371718,1.8265940329752794,-8.762207709186475,-4.004067238914665,-2.7510230110963114,-5.453647066059464,-3.07112488803071,-4.776214806939036,-6.152481219785596,-0.6185732157077988,-11.243962277490787
-5.276311826051177,4.407601079891673,-4.805847535527711,-2.431863222641054,5.398591293773585,-17.90035495294485,-5.10996873452581,0.05191348374404914,3.8318842796494854,-2.3863680350451935,-3.340322772446399,-6.211614976445965,-11.007814567623983,-0.7833455744844153,-1.7559706590444248,-4.012688108819308,0.8626345217653801,-8.208011646222527
-5.001314789182203,4.359563635762072,5.0089108127124256,-0.1462803338309393,9.02705768708715,-12.38029080624008,-2.2226004602041636,6.124053655056161,-0.21535039517392107,2.428163793444858,4.350212595623869,-2.342146668392404,-5.8193789819281,4.239818917839219,-1.0794710025041034,3.2072511422718355,6.349234528743426,-3.1230907182327847
-18.200497363590593,-2.3278763398436677,11.991333455992088,5.460739232110447,14.706991708357549,-9.49452461236332,2.1285353456664637,-0.9863451503002034,-12.170572863110976,6.0720489334605565,2.7587625822250175,0.26346033213553177,5.61944907660334,-0.6971190898586217,0.8666410075828228,0.5656862970116512,1.6808949190828049,-1.1650220130141946
-17.334451479725523,-0.6153299249350912,9.696073581121603,0.326484365036797,-2.1713230564064263,-10.90324123765694,1.1074567026203646,0.4983706635561491,-5.373186092196899,-0.048563488655050335,-0.39964350105123003,-2.1058303765564137,-8.723023395691731,-0.35953372784383664,-1.8747362201343987,-0.5114435842392595,-1.7163885417365288,-5.849445525529075
-20.567591219136464,6.079278642680151,1.2482427622365933,5.2520568020379335,6.146782728663471,-13.676711999080753,1.2572920058669421,0.32411555773070244,-13.319761216391079,-0.3084047683783533,3.07831380065738,2.56183917197359,-0.7991422001454414,-3.927234314442525,-1.3933051067820545,0.17115991452695045,-4.721495651212147,-4.969104198222388
-24.481969776600046,9.16216451173893,8.523238457932669,3.733301164236792,11.438256839572386,-12.736738170260983,4.824228999260404,1.615914047541256,-11.888802952885802,3.2417428196910967,-0.2840630035936549,5.867857494140672,1.0703943197201653,-0.26722039456721847,1.1390621370880112,3.1994256538476193,2.5290448625061694,-3.2115291802671617
-25.659639952487932,6.582610922108508,0.9542513757263293,8.075095030871733,2.3748363270824573,-10.72008274063761,4.679312226482999,2.9088765415567877,-19.635248751457738,-1.117019324120978,3.5760126022273653,7.128572849614585,-12.97779908957658,4.7610615049506535,3.0856272151612103,4.374052723923836,3.7264295276082624,-4.287673435907569
-15.799767072023105,8.985406722443827,8.229297519312798,4.410041242055437,1.320178784443975,-3.7204403629295024,6.389092241374167,4.398294735278667,2.6993457792317628,-3.130598356670083,5.478786192060742,0.7774447972117482,-6.712654175420589,6.2747420384400066,3.9581221032878426,4.866915431833512,7.073947220045669,2.4471985998925696
0.21468915804983713,9.925235518217988,2.3206680289557706,8.363379779940944,0.16872704126593252,-5.409899177641604,12.68804486563797,4.912251692020364,7.751009174512385,6.576178778544989,5.9126207481433966,0.584163784009581,2.678113575243878,1.051133200038623,3.854225180274721,4.775652465697892,7.884064649969231,2.7350994301992877
-14.726284612938695,-0.558898556890945,8.326464168277042,10.55996877454269,9.174579199013387,-3.288273243082324,0.9196331577400967,6.599193395395419,4.894916603863077,-6.176867126231249,5.268222571427973,-0.3850222760233226,2.5967025330746996,6.47332988890303,1.9926950993385666,2.3424049877217072,4.106007004246832,4.6816646675030995
-19.31353574090851,-0.5915690169930077,24.586565821022734,2.894216605856702,10.56406203181968,-9.269811941004333,8.486829976858054,4.28323510089042,-0.009435829059631473,0.8960950507186753,4.81521860826599,1.8737998390998545,7.69182059233945,2.8144854662658667,1.2056268087193582,2.352382301209536,6.775136102981994,2.7204468667789303
-32.98102522621843,11.975786077743201,13.991092550663634,8.706323613141116,2.6770294968817083,-5.483154214452933,7.6548950688714665,4.214447470300472,-28.153746493803858,14.123011095397288,10.70612372255799,5.016788691225681,-0.3961405411004577,6.481116839601848,0.12583231545834384,2.8524092076103424,5.246794873095332,8.082130393644245
-25.84555452165369,8.041250680671116,19.216536898677077,8.855372817800603,4.849749710318388,-4.330838769293946,0.4746984267890033,3.17010021090835,-7.368914675712539,-6.633421056711509,12.198664572540881,12.0712770354265,-1.6472973541135225,1.6526863463752406,1.0971176120254764,3.061202974402933,-3.6040283858579834,9.829093054624305
-23.786493870740035,12.9959264975362,18.387624397103767,5.880465204187542,4.484409762277802,-6.789449052371372,9.700550404637031,1.540799284018627,-11.581819431415948,4.64345975165911,8.902289038849531,11.513592869043686,-3.581249165230158,1.8059780234061082,5.5843688654982415,5.1272126748552,-1.0270122359263416,9.62156153339308
-10.592726642906444,16.292865516392993,18.926401783597367,2.9066478607538144,1.6787029320214693,-1.1400626484524035,17.265825378084536,-0.7711381500960144,14.481849825226785,-5.465101856822824,11.75474355718023,6.7616969923031425,0.735750090136178,3.620644244073865,5.189040300804763,7.487892876509054,1.9425533317507568,9.803367042172084
-18.4913744019044,14.221160089120588,16.926617049219015,1.0081550089576274,-0.7352608336341291,0.6054116280814026,18.580665211268606,-8.25799330639286,-1.3469478013977731,3.6665421142364876,6.498078239851466,4.84688519275295,-4.6144649184343525,7.096700170381647,7.040166613374042,0.670420833966916,2.17965455667926,12.52302561071444
1.4440242941470514,18.98811266776744,6.528862441277819,-3.818981927184506,3.785622454405771,-0.5764559953312789,12.863862934851506,-10.568070936224325,10.366469353286936,1.9598353855606012,4.0700407231661835,6.745672014045095,0.8762773024731745,0.41757401557640184,6.059564747123589,-1.848457607507319,6.715681898385125,3.6202109157349938
-3.9124065755587902,18.58190451407911,17.03051566934354,-4.641064923799947,-2.1416896579618028,8.791095028614519,3.533493661320827,-11.998336818367843,11.242637159131826,6.602567454824621,5.5449473952557895,3.668796674903378,-0.9563171425075012,-0.010219514008724506,5.665274782488058,-6.514175912403022,1.87858411899636,3.5054368477161493
-24.9902728505636,14.467483303198797,22.454672493241887,-8.782426298411863,-1.1340842704736787,-1.077554073480862,12.46494460313658,-14.013682244662448,-14.050682561843946,11.5399851816016,3.3055762170442122,2.3545778107157282,-4.741027115254691,5.7156757831141745,2.829925675066734,-7.56495032844459,1.8287650993197047,4.170815077667349
-21.554648926921548,21.586563037496628,8.445698677874432,-8.723422134564093,3.3904527067502324,2.239957933341061,11.630496936100062,-16.418816874281177,-10.336840365993318,9.643099764917576,-0.011231750281696762,0.4591630052958404,11.495183959519082,-2.717536535443838,2.729396257602608,-10.664952979806696,4.906073964593926,1.0264783001060875
-17.727058886931193,23.337405760239573,8.597909287839602,-10.518834649379784,5.474833933501833,2.9230681750277294,7.2802977618597495,-16.57700678787107,-2.0302458191064687,6.67374355056261,-0.7920577170040888,-0.16201850263032824,7.029083054956258,2.8155857483380933,2.0433416584560873,-12.78681737927224,8.083150593608655,-3.1931102027349305
-10.577831707235637,18.05990578339533,3.2821498697624265,-6.844335903987094,3.5565701638583382,-1.1767031032336015,6.348097465082884,-13.999988252376752,2.4705600611487197,-0.5907637907500072,1.3538119512180593,0.6862798203722438,-5.7367526994779725,6.103870368009165,1.9436727231115551,-7.5828141183529105,2.863800502233714,-0.4799691446037606
-8.212619895029015,16.789461590432442,4.510372601769083,-6.586783056199204,2.5185827641175944,4.003348687225522,3.169797021573249,-14.840223749034537,0.6264997911925172,1.9123168049606694,3.301412455289986,0.6602021895845205,0.15125658170866085,1.4831805180998245,0.47725226699972534,-7.260184642968344,1.455269170962374,3.7947723576767745
-10.14319370578537,20.112091353804644,7.497397155247029,-7.109420153557201,3.1421677535828136,-3.119147554213508,0.7728353172983415,-12.16403845029574,11.09022458300009,-2.7117798614510753,3.9765916931362764,-1.9981617649214645,-2.1627246019408433,-0.8900671904541266,-0.40274765038661864,-7.912643490889344,3.2716371486485896,-1.7947947459700773
-21.643128932170924,23.828581797674,4.6259675066500385,-8.314592707530975,3.9624928437783673,-0.18058042307115274,-4.9443647840997835,-13.58876066734252,4.759749765815414,-2.3534708342254747,2.5005131399250944,-6.409964406837915,2.067664934211881,-2.1877545004123777,-1.3799143303633203,-13.251209134214932,2.746439235848416,-1.135096871709028
-31.481842143496447,16.903675593866275,1.8532522539415455,-4.24518203737863,-2.54005444967634,-2.7085422648067636,0.8622201464480221,-10.325218217354301,-12.896070316331317,-2.1885938556658644,1.314703475912384,-3.200135636927321,-7.177369773497143,-0.0660850182506405,1.354420579653527,-8.82256057333955,1.4422242349286887,-6.530962941923248
-19.639552151011706,18.771328038102112,-0.6253879566705374,-1.2489449332919391,0.23637487371635402,-1.7185332448569113,4.227579146363779,-5.791456278340043,-0.1773607609893666,0.5172895622955764,-0.3620160588409602,-2.7204697452821183,-0.6004656225670888,3.3264810833741643,0.0853116879480076,-5.85736265191702,4.437218538389711,-0.9899000038599306
-14.925346688425863,7.556267995466867,4.807394463142886,-1.9626442722826938,0.1822538624582134,-3.753634824615474,-3.3444663791042855,-2.6242579473783403,-6.108288326298049,1.662575349381184,0.790800790475382,-0.8694163156021553,-7.987193043945363,-1.5805051497051736,2.039447420687126,-2.0118545157222165,-0.3781148065534774,0.6441614022892761
-9.331344313565808,8.747225898014857,2.7217190962484286,0.7427308707814206,-10.417346501542314,3.686330228275825,4.318401615366076,-2.0931977985520938,11.011019708007877,-3.6356032624433876,0.573954161737805,-5.0690390557683624,-5.118392967353775,1.4241501828949092,1.0644053662699222,-1.8759750383098688,1.35193371865239,-0.3591823901561808
-12.232740193309006,15.703533226588563,-0.925250740558603,-0.6524698117675988,-8.417509747264797,4.68313611262579,0.9462935821952314,-2.3428025606472955,7.52757003063904,2.591797346499056,-0.4265267216163542,-7.799768174513572,3.9043481946581284,-3.4800983371323806,1.2618253737246186,-6.816957844388247,6.892967976999691,-5.074121102756245
-7.8090314144106605,1.4717090251504334,3.144010054450129,0.19950225962970763,12.724864355336972,-13.458738221295645,-3.4996596019143613,-1.5175988026893628,-2.3005919571099342,0.5202745291878845,3.4535896149301433,-4.667082262133965,-0.3528220627161702,-3.3047633512703296,-0.49332594710742994,-1.600220909515724,5.795629204752061,-2.660600494099705
19.76028604667038,15.56428033823571,4.870792632873599,1.8337762403026363,9.356797164121575,4.534972620320252,4.847981349368869,-0.8871606200651887,34.554700752707745,7.435266030237274,6.061947798201059,-6.022779323009591,9.844931303861578,1.95016248524153,4.295188606519802,1.762308118074948,14.075805036235183,0.33835555576866927
-1.303275596470499,12.179817268725568,10.016940623790106,0.14872208807561182,10.677983716048695,1.4368166780635998,5.188156748635421,11.755706187007133,-0.5606932617198739,8.492812199510974,8.570522620137222,4.539562826246172,11.059786517639255,1.0540458144461406,5.178004152350339,11.766826845271133,10.248809690244844,6.852523540302316
3.317776196007472,19.932085303428288,10.476897109895457,2.175691922306049,6.141418324351089,11.524643768911899,10.314068263550334,7.992576074423463,8.956579271701587,7.794554057489917,11.760657513176605,7.390659689322332,16.963862019727483,0.5499613851917403,8.893517560475104,9.565365465794201,11.111790296904108,8.288066153106394
-0.5568142672355219,23.293548751358394,7.031958059443658,2.445846909925339,1.9972260979697563,11.55589401394692,9.776374128490085,8.331551459998288,9.101798269554116,5.242848856297053,10.163600089572158,7.706292238121122,11.346006687941012,-0.050373953892853596,7.531464154807654,12.83394881150077,5.531779064799448,10.89512208227664
-3.063660826382078,16.502443270505935,11.498742590604612,3.595940434661884,1.6634571544834613,11.979927108598368,5.918895229515918,2.3232312896599225,9.152457895527291,7.966725651392544,7.099794072225912,4.314487850296509,13.542485686344438,-2.895425558406633,4.900507538513574,6.337943115757686,-0.5340885314801644,7.740034548483273
7.711436255750861,6.004219345291079,17.138897692687813,4.25875832015528,3.4799585791052694,4.300500370112143,9.288701293294952,0.6122865328431599,24.73380403154516,1.6105096777583676,6.280313594264301,2.4886843103683587,9.978904587245061,-2.8093289069983367,3.051471444242618,7.460399650817514,2.0940271343377104,4.096363700655901
15.068959876253174,12.892985767947636,14.67496759444236,2.4811397357167433,-1.0494649147715616,14.201579357576323,6.60437209883838,3.5893256006589738,31.724380906578205,2.190082342045751,7.412264846318102,3.791324879468203,2.413132961931437,6.946303718715007,4.425810007997995,9.560565453609005,6.677752759635738,8.948663185307247
-12.632240301809668,8.555058868301323,12.79851918136238,0.7045219449989301,8.876312849414292,13.362398513230527,7.241081762651314,2.855760451624544,-9.524849371408946,6.385091471462687,10.495726597946673,2.069890994902022,16.52918547754583,3.5195641179516706,5.117223691555107,7.169580289819456,11.459258490057996,7.062366429922403
7.909846522821901,22.19013439064953,1.5484894347212883,2.346919403406567,15.483610099063682,15.25970422761943,5.046422325171612,8.275000614403522,8.214315016807559,14.000231526219977,6.741580321698401,5.039262886921893,27.717339358429754,-0.0034082078743509214,5.4186952104526025,10.932110905201743,10.286114854494897,10.644731141084351
9.311339100356847,18.250823606056795,9.44096340676937,2.8184116681559477,3.4401879558453525,10.03004215841802,16.81755334782535,9.788276798492138,-4.610271962261425,25.621457817822854,12.165772759577841,6.64457916624726,9.512373464314058,6.729108838521336,9.04122760686526,14.793350350831876,9.79905501924037,17.54732649137095
8.564644633309737,19.10077491632101,10.596663344973644,2.8025960604562865,5.656730547441422,8.51339802728546,14.136099280146254,10.81358802774856,22.314962778867656,6.384964901052617,10.068906941838804,2.2958443333481386,0.7820934782916651,18.34594050121699,7.586263562654233,12.405518340410696,15.955206640496856,16.83252427561179
13.677659193809493,15.560183879962263,7.750027808187419,7.475325748185014,11.586227005617655,18.229393542719954,14.97110969615066,-2.9071174563612017,18.383471808644977,14.69008806330573,11.291067815279145,0.09856894295976915,9.241484625426038,20.686714711439524,7.401563934058972,4.549849517154671,17.914564735455855,9.476939791231338
19.181511668886753,17.785475821711277,12.42469041838504,9.60992070631719,9.50977293657209,15.93546142070787,21.178105594279003,1.0485085659464017,25.00213412542407,11.571394563145844,15.246383892673931,7.181686034100671,16.3355986581959,10.821698808482868,10.830921643136037,9.683629407642968,14.602896996748129,19.89504514858432
3.982093471383008,16.30386751819192,13.487687537854011,5.690694845274505,13.490106691228554,10.225456816148913,20.64754967248841,4.613762865121288,19.221376458928923,3.376641965833673,12.755101684059609,4.111223263924275,16.98625407354393,13.848930838983824,7.913253765794284,10.228437366617818,17.25084503585397,15.762164594143744
-13.560976025160372,21.07646325836015,9.27885477899927,5.190441330901431,1.5542598512835943,9.986207263423411,15.137302263534373,0.2689783603102138,-4.427640497148081,13.153060277913394,11.239282622457596,2.0200809399192807,8.947342420452564,12.092357955014812,4.117399732897966,1.789647630139235,16.483265959544593,7.62536943259935
-8.447350174468063,18.04056049040479,18.841467126873592,0.784821850406187,-8.035747726336048,5.647226578129829,16.07333850869246,1.1979291054667032,0.14952922353793419,19.513606617831034,10.113052521567983,-0.5566890696801279,4.914388062582553,6.528554963367374,4.814540651668475,-1.3747372117121772,15.132233063324339,9.35209325433129
3.79535645480105,24.96987719381073,9.069564804798521,-2.6432845567892587,-1.2171796750661956,8.63444188415612,12.6156673360444,-5.6855427054049645,13.128355476031516,16.696475401151936,9.474140423547846,-4.10745740407136,4.106145786049224,13.661676645839218,4.731163375767085,-8.151598967972578,15.346214143444147,9.418756321260076
-0.9543508967813539,12.567097863972682,8.381562807988324,-6.1681211544332175,-9.142833978873899,2.9319545178517687,6.815117917842269,-5.439823208818653,6.676371911068293,8.900949415059554,5.904595750965931,-7.655728456309911,8.671101133148035,-4.594799653307014,0.25393576914899096,-9.16582200103461,10.972767779911852,-1.0614630241899379
12.16730899452595,11.692072205754913,3.3983618513643616,-6.859964004653779,-3.8825765062306985,2.895422204950231,5.312431769255456,-7.5377333143805485,27.083335437667856,-0.16197837079594812,1.2599848994167804,-7.7835629192612945,15.38656248258847,-5.857419406174268,0.17205812868310844,-12.913657051548617,6.015856239891476,-2.947615932004398
-9.965505575767105,3.203884281969131,2.323221736726735,0.652354199977534,-0.08504849790033742,6.571659290265742,1.759869536457085,-7.975325519687229,18.977293980847683,-16.9377210695211,-1.1392606460135077,-4.6863576223723165,18.58839324729366,-5.067822226836977,-1.4715885664115742,-11.777827644955238,3.4052053818083188,0.0493343352784521
-11.980886083135323,3.5090329033783902,2.910022605950072,-8.240925580386092,-5.562850060981271,-0.1997381593291978,5.630244352488387,-10.65892899073358,-8.168966571103878,4.08222486142439,-1.7813622951944996,-7.934652149285997,0.40523785625386566,3.047503809399874,-0.6730343910477696,-13.570980133206639,-1.7420793918836086,-0.9574366396227623
-0.2266148381244868,9.873097181589008,-6.755473118097143,-5.219067346698479,-7.913429775119033,-0.9146444159262161,4.130403199251683,-8.850178927092088,8.731437531223444,-3.5094083226256787,-1.2522002441055626,-6.297887085791842,4.7830887780930444,-1.9219156893104516,-4.756607816120459,-11.652415191592375,-0.832125760606587,-2.9405099118141402
-3.6094111934237247,4.13173068653624,-8.3136049944337,0.5380925777071313,-3.035144819142218,1.790148457285612,1.947927161127426,-12.217210573769838,3.0759096741845173,-1.7237652366227305,0.8389216502869328,-9.444259011432829,7.991123097654512,-4.839138354935503,-1.9057207769722533,-12.76054374028991,-5.290899328768923,1.0338421267626057
-1.4258615851779188,-0.23830777310118734,-6.2566251792991,-1.3211751148706075,-11.240788101065124,-0.48395897589252623,3.5750804778143763,-8.357509601935366,-3.943839811740908,5.728153395062801,0.39044240566922994,-11.416725641411503,1.1424929357829114,-7.55966924532161,-1.2025421225172863,-8.887457769066305,-2.8135360189833936,-1.729859634021297
0.17156993335401793,5.845139773533276,-0.4868734277393756,-5.621019147207753,-1.1822086982404438,2.907692489828384,1.5898817464435684,-6.64623742886214,2.5161448728850644,7.420384315235615,-0.6444201673547791,-9.383291888798793,11.38605506315716,-5.102972241885313,-0.4009433621239076,-9.213011350021707,3.377246416312964,-1.7587882511855062
9.483765765027082,7.1474515068229465,-7.215533465128978,-1.5214394062162806,3.116804940814657,2.98055562560465,3.0236937785388065,-3.1771025077853263,16.49871947505973,-4.362042661447271,2.42196735325163,-6.664399766333854,12.84251189855295,-1.7659971649792712,0.49907546191786745,-5.631638358361349,1.0742170078633642,5.146364283999516
-6.302299375854111,8.746813096696982,-8.27826583809396,-2.010924460439462,-5.86337827214353,4.226850695162865,1.3334522002299547,-3.2236405613769654,2.358785356370305,-6.083621920372817,-1.0550279414432238,-3.064812072220814,1.117267241127955,1.181695490061902,-1.0415874394800992,-4.784091229879444,-0.7381267040947108,-0.6435835888270436
-2.654719680545192,-7.6187921018518985,-3.3820988728885943,0.6254779471305238,-4.001282355043351,2.349600723225988,-8.852015766216532,1.0267501669867114,-7.188339386995313,-3.506170923723996,2.4014217081455396,-4.737044105558823,-5.3323653596170875,4.4236994169594075,-5.022933108600682,-3.545348179830217,-4.305928372522224,0.8912280827397066
18.863958213482178,-5.620706379302931,-6.6874077558147675,-2.499095830643042,-0.08609049923424683,-1.8699693840762999,-4.485481782853837,4.788823252880722,23.893025165112505,-15.087014377776473,0.9747882033865114,-5.724050742979946,2.478125419685303,-1.512797273570437,-2.7534242059740492,0.1353776465347658,-8.066680838769798,4.379645823220731
2.9794314868835166,-3.0326624069311734,-3.8385088586947074,-4.157982395545249,-1.2468050727982067,4.458924472079634,-3.2429963938284505,0.9335468011921506,2.4373674113907313,-4.595143528961961,0.6222509723818312,-6.514197029078442,2.575745855964297,-0.3189636775049314,-1.8503664801036304,0.4962541082492975,-13.094636958683992,8.552140243359284
8.091007732362174,-5.421177643574637,-4.1128929608305995,1.019984513099407,1.9893866076913351,-0.8320628821259719,1.0278772261791342,3.5236188154591854,1.199674952978123,3.4573349986575694,-0.6092887026200104,-4.470799607940908,1.6988764149763167,2.634012200446713,0.3229965555586132,1.0529345961826206,-6.108362796389148,6.182058798538415
5.682606706771741,3.4249042360971984,-0.5768672612687524,-2.0044966056813154,5.227897340516453,5.10894104275513,0.9051488176827149,4.648746052809863,-1.793073811371869,7.312567027277013,1.0888759183473047,-0.08222205831646479,-1.4220385303562129,10.275849675132786,0.0556678037089946,6.981254305239867,2.4427437420442573,5.472670872843393
-3.5621866448556325,9.833468845456013,-2.0196363940556274,0.9289369779144063,4.953058786486746,7.144947303817759,1.0763867112667196,0.5002606379470889,3.615494782154305,1.2087300316173977,4.837878822387548,-4.4815208516842615,9.03354852657651,4.246880124901411,-0.11325493454968338,0.5074797225520671,2.4022570015904234,6.8146256209438
2.0366276392627585,-5.727064802908277,14.508359288748888,-1.312706771417719,11.711916374855734,0.5883446576347193,1.5415865419153736,-0.034998807083036265,6.487681314500315,0.8687033195654905,7.610382471828903,-5.461551752194462,15.584894325702951,0.562958877528176,-0.28143330814519896,-2.059571127800414,5.489084166712266,8.547758632618958
10.467130060959787,3.5213257027193574,9.455724492451528,-0.1355564486314564,4.8986956071449,3.701090321771291,-4.144668055168854,5.1914225476016105,32.409779993911954,-7.477272315326127,2.2774229863945328,-3.9013068574677483,13.935049158528702,-3.1197144569432655,-1.3277913492418234,0.1589970689688034,2.0350863974050304,8.035327072051228
-7.079729292281289,13.164168095510059,-2.7242070245783427,-0.2271933739233443,5.5098184500690515,-2.364800186024701,-0.8454340062743988,2.995714606087811,-3.6781357039010896,9.862704641000862,0.5579790615962388,-3.60950959395669,-7.04897984651825,12.828050699848347,-2.959360666363719,2.4755886768556055,-0.5377715380964263,4.496084141138926
-2.3610424718234917,2.9862708557546878,6.093980883094883,-2.4665470671922005,3.388886923108767,4.754254568792926,5.579816518688706,0.21390427597996586,2.034076001715796,5.8175836263342395,6.163093417248589,-9.762090845453631,9.371942498055049,2.8000739598728988,1.8552107474741992,-0.09036491886680897,1.0908491451725641,5.059058968979391
-7.506220769322124,5.800593319674441,9.249710923349099,-0.40821660192766296,7.422761522335083,2.9875638614774584,8.978637033959988,-2.8610498497949286,-11.685025032819038,18.376204763783534,6.690280353469845,-6.245593212650568,8.70478404185218,4.785199950285745,4.522036026716904,-1.4841074509114986,4.870110646212854,6.013270507582634
4.438258203776321,13.794472926954708,6.7429676561396015,2.2367939108737205,8.13864674091784,11.866633896418225,7.886151503605813,-0.565013196050594,20.98583991552416,3.7878787114266146,6.338868685527084,-3.9000946147245665,14.289730224413427,10.091872979170702,2.697323228042578,0.24749251323108679,9.042147525601607,5.307918273337339
13.745517947516554,16.909117137582452,3.358963717367665,1.3668493373756,1.9232106184608537,17.133392446775755,2.4976644166990356,2.2191131521448444,26.510353373671318,8.635324795590854,4.42529890262615,-4.1905289320382,11.087473330370557,11.005114235556514,3.314765278581868,-1.6339722104611454,10.677200623474743,0.8922007695327094
-6.049701208363553,12.800692970204825,2.5157022064489167,-0.6742746686158488,10.45647502483589,1.6976925067090924,9.903268269821993,-3.1025657407906504,0.005588205255621759,6.941560469980857,5.637185873057114,-3.9919152486125062,12.379449026660454,3.716254007315201,4.03056935400863,-1.17140232743985,5.771274820817698,5.266318773028606
9.116067075735497,1.078520380610584,10.463259529910378,-3.3982995765671986,2.7809390269237104,4.915560585854594,0.31733927867699485,1.8295917425542774,11.980391719508672,1.9292665530530178,8.0214167989544,-4.67152766182122,-2.3424863410087227,4.924747520193396,5.235358920807208,2.0258105339866175,3.992457823151834,6.613694765937276
-1.3049863738823975,2.445989378297954,8.548987220739495,-3.484872451589979,7.31500682676165,0.32170608771521625,2.06060805094035,3.0505155081582815,11.35972385343557,-6.01095152328816,5.03496375230826,-4.178618308886142,4.2269045291703815,1.9350697439571047,0.9720039093276216,5.613858291090103,-4.425053722159978,6.692176117348362
-14.85159070550909,7.820877465658178,-0.8833501763464948,-2.5941851647725755,-3.9690920429774934,6.2757409207507,3.6094462516398735,0.5601925762839675,-5.860425563554209,-1.3515395128707661,3.1232768943442455,-6.41956039888598,1.423070625045371,0.9972967795629861,0.42032355110863895,3.6355967499505324,-8.445965263097685,2.3767222059527358
-11.894548620399105,6.558436591064575,2.576692712305036,-1.3121945042618388,-8.414761785438618,7.054725500930661,0.4715818952455635,-1.4421069323367746,-7.550703658503188,5.360439321776717,4.7278376870349765,-6.609187171597779,6.238436974716654,-5.408237068033294,-0.9119469546136245,-2.2488142736976604,-7.77733438183631,4.019059576178988
0.9254059968920911,1.686000664577282,0.569437351031679,0.849377824467817,-4.654794820229338,4.90474428134485,0.6549328194505026,-0.7102674249368273,11.074074442596357,-5.3089335106236,4.7704802449332355,-6.505399339936306,6.075132227189873,-5.07433440250254,0.9791505785209984,-1.785333547607144,-6.423159920140074,0.19323775920963548
2.1235636762428145,4.238836685043422,9.696675123034789,-4.0197555956151945,0.27944991627222393,-0.7601928607623645,1.815695519119675,2.755698943325976,13.685184303296918,4.140885138845503,2.2746624095308743,-8.06141196296791,3.276918186946311,2.487272958801052,0.7224308866675901,-2.3959705144867023,-3.0162656814171527,5.64557969319147
-1.952328197351111,7.0878704391376,-5.198405889031413,1.1704992332883495,1.505082906430447,2.657718796463411,4.149166871405838,-2.177202082799122,-2.5494943088475104,9.100114845409315,2.025647330366086,-7.468632280886197,2.043052667551173,4.483400161817432,1.7359049297531157,-2.127591267647681,-0.3887589415629069,-0.6203255120882449
-19.50552460489002,3.2016839645757216,5.396642095407874,-3.5020472657348756,-3.419342728486928,-2.6152732439276027,1.209916589815979,1.288149197355362,-2.1802481061772294,-8.009668355473737,5.097702671126026,-9.31703202011939,5.10792636015324,-4.164176535557546,-1.4492710654072756,-3.0310289444574305,-1.9586940422524206,-4.541760961267368
-5.222838018056811,2.541304652359594,-3.8313997953132013,-1.4355899214045156,-0.4311166489690823,-0.6610011276375678,-4.755947546468375,2.800021002577039,-8.840297148944508,4.960737217083686,5.533737445232128,-9.602700595790582,6.221416876912373,-6.2677164640494745,-2.680670167568576,-0.32107456581742966,0.6724606274827076,-3.57962400603126
0.8560551207091267,-10.030280693907532,10.379818921125064,3.365893202558827,2.4618213470511363,1.0985031488718198,-6.03348508931812,5.483449968170276,-2.998140869082869,-0.6222553765637464,8.314326202468218,-0.12244340634179807,4.895207546945779,-4.171027303747911,0.28782458529196875,1.998284546260857,-2.5540767914375255,6.172395466808208
8.594584486301958,-3.848606457461983,4.572574557568323,0.9413018260385142,0.08360505862932888,-4.172845888582506,-1.9391136316141981,4.650853796619941,2.4553511126980503,2.585487971455169,3.087776933686177,2.1312383946003806,0.6409807840773922,-5.393777265452529,-1.7236257964202943,5.098921612824295,-8.025005102386801,2.8389632900293744
-4.077900370822248,-8.308718459275251,1.4034326010591673,6.036943853844417,0.34450459536933176,-4.756162967509859,-5.754308329830711,2.35303453982211,3.5161631152165818,-10.318790368957277,4.40512001126618,-2.5487351327278196,-2.244352609419897,-4.56481314762391,-4.222777030188798,3.2190106250604904,-6.755847945155642,0.38513505684340466
-16.848589784701637,6.081953589886627,-4.498813753807168,3.71117411636451,10.764158237370072,-10.026634526625148,2.247771129204187,1.910345153679395,-15.3433342432002,-2.2251837865798256,5.039708407223308,0.9745337902892022,6.102608515997589,-5.981098292165472,0.9936089521802745,3.780520817593839,-5.485025647014863,5.744608213476244
-9.404673199987581,-4.427326260627314,7.27627123962978,2.5578627438262638,6.244518188882956,-5.823931434615345,-3.6168847775409194,0.4907012507411941,-12.813965898867561,-1.4544722936151446,6.261117141851714,4.0094555734608335,-1.4670190052415464,-4.3691377618711815,1.7183021976366994,1.412257796922359,-5.384467854664399,4.9523229735668775
0.9684308678489018,-2.531370724926063,-3.7993073347710524,5.01844216345325,-1.8861271432862416,-4.452971904625169,-4.207383495950117,-5.812216408773182,-1.3959718721979968,-3.9050668908157817,5.530268032881352,-0.5730342982753536,-9.62100214238777,-1.9750828506261238,-2.439341015217055,-2.3232729444246085,-5.770607643063615,4.160713191299346
-5.749111946320525,-13.132974007693367,6.415715519731866,2.791993313145211,14.692956563915121,-7.183349245752112,-4.797268128652353,-5.865434790009412,-18.00402743961043,2.532555412765279,6.265203717133807,-0.46810881143982375,11.133263729864979,-7.099864968280366,-3.5690568142076824,-3.617437547895848,-3.6160927995916463,-0.14590436530624373
7.650300577964607,-4.68875747947984,-5.145757902746276,5.253648022916031,10.961539923896733,-19.19096607057211,4.672182825495995,-3.6729302825662673,-0.03957085304829988,0.6705948811329203,5.340896921735852,-2.902487731181841,7.572276652067163,-5.29016228762485,-3.526355652496889,-5.985932315710574,-5.757003327463589,0.43103057279805945
-14.791212578061254,-11.183687055249152,1.8488840410005807,1.9540168034315604,7.037105361291654,-13.912959112371018,-2.947908699897681,-3.3363367160051247,-19.378748670452058,-3.4362067398340197,1.4878161263011211,-0.8448595049107457,-2.432631162750809,-4.065644716909702,-1.5299893044970405,-5.131833982843487,-5.845624760148469,0.8133093567510334
0.6579473130036053,-0.00015073318551195314,2.9851705819199505,1.5846271641000795,4.482163818716913,-11.369206786602234,1.2491215168155314,-5.7345821929805965,1.030346167418966,0.36851672441316286,3.6904912262856993,0.1382402077012994,-5.307068677161405,-2.938047667197974,0.8575043929572573,-3.984891692666522,-1.831183634505856,2.7587643862028504
-6.3546974023522615,-2.0957261481112415,7.442892887931404,1.3133932129086792,8.66787725629937,-7.751098523628635,8.669364955149758,-7.742627166965443,-6.684465702610393,4.760395320355837,4.722265967760677,-2.492333035150094,1.4880299408509359,1.2176522489692843,2.073587309330083,-2.935752978312928,5.309703141703652,1.4821587280575281
-0.1840650042655243,0.3032206385527605,8.19065662282616,-4.035556766515295,2.3088110835258746,-11.066609895139024,6.519629762872264,-3.9893037646083327,3.0829303777332613,2.6103739454547865,3.411262712294529,-4.830311544906581,-4.7039669623127605,-1.3643434563646433,2.4112180881387757,-2.5703804828277144,2.0025697661283686,1.1827668165816858
-24.19018474217603,-5.401234324166527,5.521397350231486,1.065346362188734,-12.641895310316702,-6.862435803698516,2.6125067749113926,-1.6036345477017675,-16.738546309827,-4.519064245702062,3.566147309432159,-5.313212107849081,-6.988306774210404,-9.512166545090407,-0.571061634406592,-1.4239239331147848,-2.865769738658707,-4.096542595456122
-7.082898154527539,-1.2401429811150724,-2.0297892675951665,5.092477664597778,-1.8087336256686104,-15.939714885327305,10.815366257341775,-2.9294125107561966,-2.964387817442911,-1.686326300355928,2.1595425547155624,-2.76918117558189,-4.09547575581195,-3.0106896143507877,0.7440367342093923,-3.500366128473083,0.8610488745506953,-2.6368504786275135
-2.3786379060665626,-12.213963547007264,3.017793472639573,3.651227188491494,-6.012656273977788,-4.997197265090739,5.932481989188569,-3.3767308010490624,-5.790722416107265,2.417007034334943,1.2422725022338028,-5.792137912430896,-7.353809059023368,-0.4149082522427812,2.352530437681059,-3.0379154773595434,-8.106402858879871,1.1672344036510705
-9.784421092930925,-4.435537493760203,-0.13699237221976457,1.331497031115505,-6.405737234989418,-6.359633952156573,3.4914049832119285,-3.8245157200882525,3.7867489898104627,-9.494526692927433,-1.7247537928561965,-5.592922431850323,-1.8217101143232703,-9.537466781816445,1.422329334992872,-3.1616343628906254,-10.52959162320574,1.5538942743401511
3.4151056458229867,-5.835056315381843,2.275554786192173,0.08643026782152918,4.043362171439987,-4.890113745915066,3.0038164939917706,-4.175115878932505,3.1113811069063106,2.7163607103412155,0.28983006251787735,-6.175537495340063,8.399157980791083,-9.186660850473096,0.7854919529583123,-2.0160400427068126,-2.697565152785854,0.0856412331210219
-6.53071414919845,-3.52177659666056,6.642058348577969,-2.0371396639920976,9.611726398652337,-4.983272959931,5.1532903124207,-5.600430226598152,4.2926843054326405,-7.142485390395226,5.918823630725461,-8.516594607066887,4.949101763815285,0.9304573626582406,2.6881301237781114,-4.386375725722018,2.40115489432157,1.7430076687790725
0.5154625267079016,-5.992000437609519,6.224093623335287,-0.44931076392981795,0.9241922430102703,-2.9281549527471267,3.2990694047216986,3.227833303488989,-0.4820098285692378,5.1678472076675535,2.5643851964848725,-6.951977627111535,-0.35533079445330795,2.2588916920049904,1.1731052609849137,1.4462738399233794,5.547787866555855,1.6430936184005454
-2.8881768372687393,5.6021369186654155,-4.642529311731958,-0.42361280578252847,-7.468257922361072,1.5681765445038116,2.421667531367307,-1.2258461806681864,1.482755954603066,-0.3923595512290219,6.242389760936951,-9.684968200462286,-6.830574332984128,2.4159201908990933,2.6858115358658585,-2.9754174209524353,4.0078741205129695,1.5437248691492975
-11.565758909782092,2.9398114020059833,0.2144225708691021,-2.155373090272307,-5.116267558089417,0.7907236494920973,5.5484434005950956,-2.0666848899491073,-10.028219256774163,5.376513529127811,1.9135498348777666,-7.828742134445442,-6.273417697797365,5.210168909862017,4.296499834012327,-4.0770364440414175,0.4181293799684528,7.890298174101764
-13.114736978920458,3.8923097295725837,-7.818810217751186,-1.250005139935456,-8.816990362028903,0.40359942654047387,-1.1880335392240342,1.3889163577123735,-13.432623298669535,2.747557341266672,1.1991398797389934,-8.805316529406555,-12.063010467273477,6.051698111224947,-0.733231048788328,-1.4679647121759922,0.24734349927976373,1.151250867711509
-10.367171210822804,-3.6500078606384507,3.9730733793401285,-1.8091458721537736,0.6681253494618278,-9.066032226626177,-2.7485029401475902,2.109595521655711,-4.238248204699925,-5.154226511131874,2.6342960908011905,-5.095072939281337,-0.8591920541124267,-2.8721375017155477,-0.9774428668298536,-4.328041873010833,-1.4850721878659774,1.5417199989843393
-3.8113354532112576,1.797481262910368,1.2145067190182814,-0.317128470955039,3.0262457816788526,-2.227193620605751,-8.703455115999057,0.19300583180515885,2.9061972799109306,0.1284283093134797,2.410367832843167,-6.561469364343357,-2.349954859212719,1.6811780066237798,-1.4166979247602387,-5.625922345783729,-1.5564564939652872,-1.680661508586705
9.580175615625404,-0.4687441797865102,3.7299687469213003,-1.9498249852259169,6.948885245790191,0.4119556376083491,-7.236335402290317,1.1079764584663612,14.446076662987549,-0.3501267878469356,-1.914088213711727,-1.290286463933775,-0.12883799838112697,3.7934066474954204,0.29277178519366376,-2.7248584947451695,7.162161064212933,0.0779713355222782
-7.009590167120758,0.4889022074803533,-0.5901427686652552,1.691318427639802,3.6468218592531385,3.148322511249116,-6.15979498060757,0.0692740826068956,-7.314544680665957,13.136924260668387,-3.112400119747363,-8.129491760961074,-4.059312713840703,8.640382177138706,-0.5366232082281841,-3.3398227825797133,6.018107271456989,1.0557952622433184
-4.361115442858313,7.209441083022631,-9.304426894081745,-4.628317486699252,7.866348411147834,-1.147141052174398,-8.891886771787092,1.9597818768882962,-9.933506791421934,7.971848375948258,-0.5986232892316359,-8.524137035952439,5.292471795618517,-0.18442233977719696,-2.0494039672105333,-3.2715430245673014,8.39044738470076,-1.3839657509095957
-3.470797587093635,0.0635860506655872,-10.498681980769257,2.0408244326362124,4.470488514213226,2.369509012052913,-10.159124838673668,-0.7401497728355464,-16.165109152628254,8.276059086233776,0.060748262769385164,-4.03676728097793,-2.2497656270122497,6.909261650828813,-3.659642347321167,-5.059130761749312,10.568141852460466,-5.483489836755149
-7.951955838626104,4.4422689186914095,-6.2237632623735415,-3.8875954774924413,-3.9040261982490962,6.4715680888403,-11.231091818332281,-3.9288992003350733,-12.727944645763326,7.018150417656103,1.2094965111007134,-9.120747942836905,-0.8067632362857333,-0.15717663195893472,-2.046993643408638,-9.581515616433379,6.105734125937122,-2.844229194116882
-2.667622972177698,2.083411697782804,-6.929091631883157,-0.0499664432309706,0.6141426941848862,2.9557547592446944,-5.6624088341966,-3.5048445424740775,-2.942421460439725,3.807442345475192,2.5546435063410398,-10.982933740929033,-5.515510051898216,10.355001435419206,-2.484994437704898,-7.951852869067417,8.38228864350164,-5.67341956583342
-3.633650544968643,-1.2512594380753992,2.8152131804112686,1.9324287733238394,4.352882883353818,10.572324486741675,-12.594024857876263,-0.7375394540125368,-1.261929624219222,5.870558214669414,3.4125794188446976,-8.158476038648065,4.718026621465767,6.316372329902373,-2.239246768743493,-7.201509124427874,13.393791852030043,-3.228728116794361
13.564414588445308,7.426654589757019,-2.38190387608171,-1.1631269022721333,7.898111468723123,-4.468330848342205,-3.0216228808272785,1.7362542304660034,9.59890693868369,8.422218992682668,3.6856399612548225,-4.260727492817645,7.139554310353105,-1.0424509370875716,-1.9933737206809812,-1.959317682574516,8.347033355246541,-4.885316816015871
-7.128952052959464,-3.3287187231702333,2.0892651877860207,-1.8169990902455755,10.663852026915775,-5.349272625259055,-6.633187604699677,3.6235606137713443,-10.106655359601762,0.4270499595659536,2.6902135284570248,-3.196012807056107,-0.008805145232910316,1.6576148515434546,0.20576047172536088,0.45038223268318056,3.593686957254169,-2.7329279452238326
-6.337825895387931,1.0533806787868922,-6.03728678636627,2.900532844795772,2.103038011580066,-2.910538781857166,-8.682431834879377,2.2876182012398534,-17.7022268334268,6.494751250726912,2.770077604979682,0.016198819502363904,-9.012128897843152,1.3304052686315169,-1.5013277657648607,1.9807369910508594,4.211908302273861,-4.779515728741574
11.250240277496644,-5.501743502259156,2.340404505528779,-2.1474923421328387,1.8448439641825223,-7.015589216330895,-7.216232183581752,4.3691509692998585,14.546948576481359,-8.043225533753015,0.5072021754390033,-1.0695162795808582,-10.007023572227988,1.4915716553268301,-1.1575355733227604,1.655161023784899,0.4358763629043314,-6.337528456366258
-6.806941109289423,-5.220461922621518,-11.254852629099034,1.9845154608897164,3.73680042954892,-6.726784530616939,-3.992459220153613,-1.753114361134227,-14.044300720679013,-3.440231053987379,-0.7780595141440063,-3.035148911357398,-4.556051114108786,-1.8628806815504322,-1.1066681202594235,-1.2099577664457306,-5.293012518363516,-2.426441465470944
-0.6451563716131554,-7.575654371962873,-14.596045813299732,-0.4263513319143682,-0.7173483946684609,-4.583252811758863,-12.878543107764422,2.1828175569167576,-16.658284600063855,-1.9622811790623649,-3.2341884497439874,-1.3884536599680217,-9.456380626156134,-6.096220137528985,-0.6651407437481132,0.2214147501499495,-4.771555454673653,-6.327727752828592
2.098473072514194,-2.6063099415547013,-14.909889448738747,-1.7628003583429073,2.7403945745025533,-7.909350753393829,-2.233406907790914,0.8446795998158683,-12.533618063259745,-2.43753434073595,-1.685335867051906,-0.5240384051231697,-16.016510702252848,4.612079790659731,1.827208513207409,3.0195389115112974,-1.4178207359100594,-0.26769919093633154
8.455323579483043,-15.41054597751493,2.061605157632142,0.8072315350170909,8.836477842515302,-5.083832797166902,-7.799814168221353,3.607613030088509,-5.088361531403267,-0.37378597790573087,3.2825395938569297,-1.9067777899796443,-10.369079350399787,7.410080502980896,1.292157435593636,1.2272853190329052,4.865801915939761,-2.2154007703756435
0.26107453790015356,-9.269129820193125,-1.3774907664363623,-1.505463513749464,12.395007123052176,-4.798262665045618,-7.018857354393264,-2.419205516221054,-6.432113608835574,-0.7516324712507076,-3.1745514798897982,-1.5327120025521594,6.899930263224935,-5.905495576564438,-0.5124744795337951,-2.323278619742202,1.1884432858888345,0.32933722618936656
1.34423354750846,-4.690263992255906,-6.9652205825812015,-1.1812506990941054,3.454858349871598,-7.247980016172224,-1.1601172966850366,-0.24333080097051485,-1.2326472228720853,-11.286087050539976,1.4046575428356443,-0.37842499589610945,-5.909373221907732,-3.4982525520967305,0.905548896018641,3.3055071140220544,-2.195881460283637,-2.106307219225222
0.18120619328924725,-3.431864331418086,-0.05296370523089139,-2.907712665620828,-6.069759245066655,-2.5695766037299075,1.6707836014292234,-0.607115671217852,0.4512529681964432,-8.344028463562351,1.3949139733841456,0.28652701295115435,-11.589426709834505,-2.5559800505272237,2.3235021317901756,4.2462367099789216,-4.701273440155756,2.7825197332936784
5.17057692871408,-4.908060296362217,2.2691352590081477,-1.89963119455546,-0.9442737363638223,2.693856147157959,2.4503930128114773,-4.584796591408232,-6.360994495542123,6.414309765091356,-0.6646958532642069,1.243401280469259,-7.112875709692859,1.999497091600717,2.9601032183428817,1.7684542319393541,-0.6636312710891228,-2.387281260789564
4.886408804306811,-13.22055222076988,-6.639689728591964,-0.5008030249838962,10.139740018463215,-11.477540657663614,-4.387809729244848,-0.6527614447684604,-17.372485044347425,2.81263393008848,-2.6257171814146556,1.7109321255842396,-9.960490698169309,-3.1133010583342573,1.6434391087245728,5.051980834558151,-1.313642579118448,-0.1349964879233574
19.446214746306037,-3.173717710284072,-6.9549567364630835,0.31218354020197725,1.2052867310207849,-5.5324037595524,6.351843108282429,-3.6549878546230445,9.604889786330578,-1.277741565922577,-0.09356782741514547,1.3961434467174545,-11.050136356053867,-0.21835074800203916,4.81890041574575,4.819324913430936,0.28234473279842187,0.7501555073172109
3.146190604899572,-2.4047710659621506,-11.17689540720404,1.1252641162319281,-1.966027016918038,1.1930134616516144,0.0008248156498116277,1.545472869353206,-5.410593728433174,-6.54047296728111,-1.5644878777834492,4.205342821412408,-13.018605688114322,4.043594551956324,2.5253773442413108,7.222917921646433,-0.36797275578272615,1.4400455244074761
5.010539910865015,-6.421529331620031,-1.1412045498409746,-1.1866197295511545,-5.03838734831149,-0.9694254387285239,5.661113262706356,5.573476726850709,-1.8711705273457468,-1.8426299622926448,-1.2766879074306132,1.2516746968711807,-9.225205880852066,3.5200701537776724,3.2590729276874852,7.672840001897251,2.79013756974948,-2.264631484287581
17.812607591267874,-5.262975321169257,-4.680378132034239,0.8961673241936088,3.3164660418009486,1.164054943832185,2.8245546046373757,7.257129966478725,8.308881995775403,1.1944643272437077,-0.1091053464584979,-0.6288195143533155,8.533280236640119,-2.7655283100509873,-0.2067060126753122,9.001159642828856,1.4557206449183187,2.9175547896611427
8.446437124996889,1.8520813900798947,3.401243236126728,0.6352306189054007,2.688027580737151,0.5620784566661063,3.2100495258858324,9.721479473604537,2.863566721662485,6.867698460171168,-0.9914906709545219,5.595217859179124,-0.7594306714004042,3.2534542239752806,0.9172166856379314,12.770394798674413,5.296845733536418,0.2871083140151338
1.0335073752905362,-1.9712188980474528,4.841625059367618,2.0345269932250023,-0.47833007494771174,0.05670134743576316,7.403516626797269,8.181295247371855,-4.242091146618406,6.387823873629603,3.302810136851461,0.48989766592244166,-5.657578227419169,1.654812020700344,4.189377036446794,14.976572316922965,4.059403275615331,4.395009793788484
1.7262726592415012,5.82599199858065,1.8868587622639676,-2.2302844867396754,-2.471651277917167,7.167552031619188,1.3422137877440354,7.128832661006103,7.109371955592254,-2.2960238495379746,1.0548490496091043,1.34064177763252,-4.403354519181673,3.0832121354825817,3.5549746449334165,10.932114941211772,3.309837800574987,2.4480725990194276
10.720064763028732,-2.3934952714001003,5.6698906270378915,-3.8583062473277483,-2.315397366275291,9.882711533184102,9.245233334427402,-0.07663522961925777,4.3978983934910465,9.527479113375177,-2.0712446510174862,-1.715978984560424,9.253304955236874,0.8002440180316395,4.287506958514496,2.3948563399280722,8.02864760709942,1.1846580429142892
11.51074150602917,0.9097340427266358,5.057702704218941,-2.3612598389051707,-0.8885269785601615,9.081083206453169,4.06135434160747,-0.9349182437641136,2.17446201760253,14.221140642013951,-1.9738659386346367,0.6951816930373749,2.2063959712046985,8.087333998043198,0.3321735648648111,0.6930887916179744,2.492890318646886,4.511052902074242
8.19994345446532,10.462094956647125,-2.1958680672868365,-0.9618608485684059,-2.976308573177031,0.5633685475218853,8.056514988318384,7.288399843382005,11.864989736091012,-3.5473559874045977,3.983723720760751,3.202952025759817,-2.7898577810486866,5.608223363386478,2.626620843135197,7.486988380566755,4.671544165933972,9.009213382725196
8.209673899088948,-1.275961285629013,8.71420982224314,-0.4413812704084138,0.015099599270136377,4.837677935116631,2.8710339034203587,2.6203270604316242,7.687810210952264,0.5585518886177228,2.910681811494108,4.049497254180503,-2.1221491167052706,4.398210763500359,2.6746049037526687,5.393471947685666,2.4550037024544675,11.163437904361984
8.12192651929934,2.512468320324855,4.877244030207154,-1.0928043077596694,-2.656693427840521,1.102898296640137,1.88399562321396,8.791693881455405,-7.0367405818031,17.163670044334083,3.7914992641722893,0.5004058353185235,-1.2593401153625048,0.5509607998392747,3.1128642640059683,6.717409424981076,2.2886344207834455,9.020548696633263
-7.200234291915424,1.9051407968226437,3.187990272736637,4.408190657161082,2.973329487825131,5.179569739911035,6.267267544835901,3.341219757657083,-8.675515957490465,3.689172819666025,0.9620056668904784,6.325424905689198,5.365032354245835,3.1486177215337676,3.550747540544275,5.696988913900263,2.8051829430445343,10.197826506923391
-0.8421691295944513,1.0036183091834614,5.404255151472292,1.0223018407473201,2.5494407242633845,-1.389633785976987,11.333253052153735,-0.2543274224574945,-2.8926905054894627,1.5418913137260475,2.7230871496353917,5.21571821388714,2.321017875221502,1.9370934562322772,3.597603406898136,4.383017829625864,8.301545188719594,5.320105300789583
13.035762825115178,1.7609938392494464,3.5180718813554055,1.8356567100412668,5.93503211192311,-2.8818286510544606,5.558314132273692,-1.506659138214991,0.05764817334782979,9.842855413601834,4.48480787042145,5.765173798340883,-7.071047274412737,6.779794643632544,2.667465127087717,4.7286459586151155,9.500191596674266,7.571157038451239
21.640410248494998,-0.9009957904726433,5.049055007751197,-1.6479777473773485,12.055828506153484,1.3865774281881809,-3.6355852086112055,-4.81037380011972,19.707024002200505,2.7127138286810433,-0.0029498438541013527,1.7237037313196772,6.779105875795832,2.539746709362682,1.0532857117448002,-5.375691371297155,5.619816426934552,1.618693604272333
-13.798337574821714,6.592015771100005,-3.9678830840858006,-1.4206763683430061,-2.0377790850953206,-0.30335562471282884,-7.1662989292789865,-2.3528522202647983,-19.33636172283463,4.565851768680838,-0.7791190265636487,2.9547477245181017,-8.47309707815834,-0.04072350392211477,-0.7566662476081825,-2.5897990296677578,0.8596591474542885,3.478561535527354
4.963217531275957,0.9974280364594756,-7.22392987257346,2.7128668923745622,-1.9703062242491924,2.9860284663093024,-11.18628797625706,-4.290499310276835,-8.770097710140636,7.980231518986056,-2.4336361891981175,4.673084967840689,-3.4128647066808653,-2.0358754106346164,-4.227276845887869,-4.785048081274787,-3.901403444489146,-0.5213455395550675
4.095835087782299,-7.4307533884234855,-5.89100760458338,1.6704728610478101,-1.4138766284857338,-7.397908641825488,-4.367277316382626,-0.5645676826710614,-4.259117560391123,-0.8139373498636608,-2.3297652443199333,-0.15263288965027488,-1.1851058879096663,-4.910599065994774,-3.0108128346803262,-4.637112480784399,-4.952419559350517,1.2402208220276467
5.767832635412785,-3.4579768922223515,-6.902844456094818,-1.0321890628150838,1.3893089464572068,-9.579842489078846,1.4741241851743419,-2.015066245635549,-2.1901058034685876,0.5469190125265637,-2.323026296276444,-1.6589646885488998,0.7492567779368429,-6.8094210206939145,-0.3299993512838473,-2.3413120090460944,-3.3676661116943363,-3.7369526060861014
-6.915568883334185,0.5131699677338943,-7.329736088344225,-3.6372887056554566,-4.693771908084022,-4.048070459533923,-1.084093497574291,-4.1497386084428,-5.785787968284309,-8.640688481099762,-2.9017312072870043,-0.04121605297643338,-5.813050097889798,-7.048760347704216,1.9596469920654345,-3.0735110201105544,-5.592595126991602,0.5629812415357067
11.065858174018208,-2.2557501153211867,-9.906126309644815,-1.9455522925823034,0.6496507950240231,-0.27540138111699974,-3.0574394969866203,-6.675611106682825,-6.745275433810567,10.686288546015547,-5.530769335691366,-1.4518143200908575,-0.07095045129678557,-6.605217324343118,0.0494549582839795,-2.732088372410542,-3.4239969799182113,-3.047762019380304
6.293338837092552,-7.565506198845265,-7.014737673893299,1.7968832011484634,-2.697957278066098,-3.1447296462387984,-3.1763838492254637,-2.951956865350557,4.5995295983080915,-6.707567463255964,-3.9600686391135493,-0.42191533048285557,-7.415478667846315,-0.40061194393061866,-3.130862427564686,-1.0240745995432863,-1.5494830811996656,-3.826852869867399
8.454834436611042,-2.427669343364182,-17.503539495909443,5.148565419874347,-2.8223915740472805,0.3324174461611795,-7.593384257352952,-1.5726563684381816,-6.029257319741687,-0.958108378521747,-2.5842507968359003,3.243807512264816,-9.291685430749494,0.23673586836253002,-2.3078061699110117,-0.2932590213832019,-5.7308992893929185,-1.383681996498178
12.667465733965297,-7.252756322466544,-13.14946951184491,6.546961769792385,5.647484017448059,-7.422359419814815,-1.9527723957029584,2.149862661817795,-0.25216115591970567,-6.147931478179457,2.8936013605973145,2.318692942902267,-4.137067564547767,-0.005624003280505607,-1.4853623647219303,4.050268796294375,-1.6125962701469017,-0.21052681843317478
17.368716093612385,-15.595403928097804,-4.597245188688304,4.429539758806328,0.6409807986177751,0.0561818870276527,-5.78611515214965,0.6959550882317722,9.332953585662738,-4.7963466076533,-2.1751965857158018,-0.755803656706342,-1.4244458848702655,0.630126562323897,-2.6167043292420593,-0.9819737264879036,-2.5737221343778396,0.9621422123990997
6.347407298175192,-11.43978894743518,-9.81591364931089,0.9447611237212157,-6.513642605570628,-0.2791901106238317,-3.0775613752828925,-2.028068528483023,-8.23143192927541,-2.079258650698296,-1.0911944497256405,-2.5616491451951,-11.993848924233056,5.073699023642669,-0.6236478412029177,-4.354664878170937,-3.34079584315491,1.4507001646797097
3.4320340293498903,-16.56363210440361,-0.9730410292382343,1.9520818331558476,5.570619883971377,-2.6666729103671636,-4.2765068494572445,-2.115897526746346,-1.870334002788407,-6.395277208421365,-1.667034778233588,-2.2199112817370086,10.346815670256492,-7.671341024718208,-1.0727020906812417,-5.091229957460276,-5.085746394894169,2.6223349976535055
9.40386374381073,-11.240113043571668,1.6185415155715068,-4.853381699826925,-6.1733339009308,-2.2233830358969833,-4.109450542602163,-0.7394236321514768,0.779093326449221,1.8847602775826653,-3.6097676230595734,-4.12517546503241,-5.887935973203625,-1.9599382227726199,-1.815414521092244,-3.5823023945167867,-4.390588161847222,-2.163699648777815
-3.6672122472688216,-1.7193687455722495,-1.8458708691128214,-2.2838754257877745,-2.877761883161994,-1.3907668901222259,-3.943617086706211,-4.148740958487204,-2.5292907293232827,-2.6302010670192693,-1.0599517634966533,-3.2968837279456817,0.826254983050001,-4.452674919666466,-1.582251948819985,-7.152214933045052,0.40482602793152744,-1.7744410327788387
-6.093236486546777,-3.333704465236247,0.45028891544987015,-2.644282698619673,-6.027405098541728,-7.493157256036511,0.7132339704063599,-4.921859902465963,-16.385411907302604,9.161803683222216,-1.1466253119532763,-3.250701198961867,-8.378408848271198,0.5733262693511543,-2.6193595346758753,-7.304746173045809,-3.297385820935331,-4.901447239313085
-0.9992527294824303,-5.731438226396193,10.557814834238997,-7.692450814850533,0.5888834271411582,3.8838792505056112,-6.252439402896476,-2.7658057952100896,-4.753575234599965,1.0297121339858863,-0.45179032018955567,0.31032648427127807,-1.6655203589383323,2.2780379384398484,-3.0712570411232463,-2.0867430588419733,0.811586295797937,-3.243829123249726
12.786635318075106,-4.225035392070858,3.866938678281839,-4.34225044443701,2.713036084051022,4.224281474997747,-1.109820567117767,-5.102565345692785,5.217357201459816,1.1965712468181342,-1.7098863231317227,3.382246034661166,1.8239878384403339,-1.7800011260511786,0.5777176757753315,0.10322725806979882,-1.3310038571843026,-3.442331310728341
8.603867503689429,-4.088049217183742,4.596763196423682,-5.972799707298628,2.9817746679246127,5.149320070875319,-3.6834442818388315,0.27508059471724544,5.324125706064397,-3.326137459438507,0.5478974812011856,0.5938960477624886,1.2111811648704327,6.465873844552223,-1.8288565243711143,-1.1254674333771513,-3.475091597900361,3.2922250073801287
15.749768277424236,-3.172043091402677,-4.245174307274208,-1.9394125204026764,15.457776954472983,-4.083356194936238,-1.1801593896565277,-2.2581046794455277,7.57862359385528,2.7938131023873143,-3.151262161761233,-0.8280361761773642,22.66831968311956,-7.945824710291645,-2.3807185104809223,-4.405619771916282,-4.9371024393527865,0.26034898002232687
-8.452092878690753,4.089442126693752,4.978251614918257,-3.765709683428987,-0.28929787161806275,1.7219504158079335,-4.732960349451118,4.485642893647335,-18.586029725087794,7.837456961457571,4.966321196109211,2.632142746973086,-6.657284425521461,4.887992408920619,-0.10130634519443316,3.055933450177371,1.4119499716764525,0.7434765172316751
6.995462566534897,-2.90940714164413,4.825201879656175,0.2672302848398822,1.4443366071200352,4.693874835733363,-6.529239308912075,0.09585749782358932,-3.735188146774276,6.531239989158942,1.2674524071680875,5.114983339794348,-2.096383519304957,3.169797003982747,0.028820126576015737,-1.3974039794928985,3.755451442137099,-1.3131884576063597
-9.588345656365375,-4.148782929942465,0.2762080443801027,1.5655190428938615,-3.07218597513506,3.8558416327830436,-3.834590172883795,-4.001503327577543,-11.639362329338528,-5.519471255640645,1.4750058420396825,3.7884262438663483,0.7059348073439642,0.08336918091541468,-3.3575621789556367,-4.4841796521211075,-1.0316722847731712,-3.5658757858271364
-6.835545684416262,-8.417908955058715,9.788570728339074,1.5940156075424161,-2.3152873126709688,-0.20620019555704117,-0.9459634012093203,0.10383937691571798,-8.899610711137495,5.181894020060006,0.21778426315063992,-0.3709358757054564,1.2613700239544965,-0.3673379076727492,-3.229110308097715,-1.0285333407096655,-2.3047530192373396,-3.963787923387354
-13.945801696729433,-7.31824500208621,1.428197570472709,2.5988410384726373,4.886890953107168,-0.4608902187543831,-5.480671879480505,-1.8461423807448805,-10.750545545574543,-3.162209942807952,-3.28549549891751,-0.03875710260866638,5.0387443616227205,0.45045381674473983,-4.5663829494665364,-3.8236287547775643,-8.75535400865476,-6.21793336650359
8.534613031634004,-13.154690089522639,8.594025303564921,3.017464649654582,2.8114186704692554,-6.478683248956203,-0.8369081967684977,4.113610362188789,19.722454912739103,-12.875764028744825,-4.444940604298886,4.5896626155975495,4.420743485130107,-4.982914548369553,-3.8537149961015675,4.025323646270291,-10.5200667407275,-3.4922840269631323
-8.535982209810054,1.3192432036388215,-2.2105603831189438,1.482671353347886,8.255393713767008,-4.782806847456832,-5.4719929075257925,-0.8648440690518557,-13.966459866844186,3.4830260564735154,-2.088678796454966,4.627484570845873,-0.006696157184654439,-1.6281632716877996,-2.1653547160602082,0.935964034661088,-11.700538387495293,-3.5018144271902782
-11.54348916671844,-4.0337967085917645,-1.1022994869352598,0.826529004588503,0.417684590351974,0.8180919947369798,-3.565379031305067,-5.2578901224667955,-16.405680300250907,-4.965551785265934,0.46290647573558885,5.055269252087289,-1.1145689155463008,-3.3527030273648313,-0.6732076988087936,-2.4470129269671292,-10.538950536482957,-0.582388000871761
-12.890442298054806,1.8413328419140793,-3.6087801941727897,1.3420043308761231,-2.7327167434143598,-2.859776195759501,-5.859424158318167,-1.057590853006505,-11.22838130309665,-8.338257324934697,3.11213754783469,3.138615760722736,-7.3014492093442716,0.6834644545493402,-3.2835958324611303,-2.6079273632466764,-7.816584824038133,-4.695105895393841
-8.47521834981955,-5.567477919706207,-3.5775713920729277,-1.853796051928219,-4.711520519661375,-2.5349527483558503,-8.545481850893065,1.481993310753027,-11.130070179461343,-7.904668173133125,-1.0747046759226253,0.6353793149541542,-6.750758635426936,-4.0706742902992445,-2.672200457972441,-0.8163284244629165,-9.295266422456848,-4.023392480555902
-8.551882231954929,-13.27176485641688,-1.0086785960879951,1.3955265690266847,-7.667227938079881,-8.363836064600292,-4.103910799852024,6.071858806396731,-6.735604261949048,-13.52824177672608,-3.0154695116515096,1.8425164348579997,-8.154043605629766,-6.4821463556053684,-2.550027115332507,3.123101080427827,-12.33825362681295,-9.114293873895786
-7.846918531135959,-1.9353090216831745,-12.894553093545575,-0.43364728863556445,-5.252116107751671,-3.9399186728315283,-3.863012798785988,3.239207172898058,-15.721034220011482,-4.993850294063572,-2.905491173245447,0.509947752285254,-4.479953755953884,-6.941591445508763,-3.112402257926083,4.718107052913172,-15.09006541599429,-5.416816216613382
12.487613689109374,-7.105539725746832,-12.476977566349051,-0.30996636529193244,-3.0327057090728924,-7.232217081425315,-2.4516153369830667,-1.8400990156694355,8.691698429324415,-12.868389402059057,-4.065151125232101,0.8369721296538872,-0.8066978882054596,-11.406139715154422,-1.7225774291274247,-0.6212221106679113,-15.597561781723396,-10.314045899223785
-1.4553613931658798,-12.66894004480207,-11.865514238807025,3.0361140461352396,-8.138040513116618,-7.303056176547596,-5.045581102758076,-1.060464972081641,-7.814944965178791,-10.49131767679172,-5.127258853714096,0.4798198650110437,-13.345466572020726,-3.2739826009821775,-5.31426225615141,0.3865686646458053,-16.49751524815812,-12.96598162204289
7.64924606390598,-10.129295087529039,-15.94305152440511,2.0849421559661563,4.334575250887309,-13.234597040779224,-3.148688434513846,-0.9649569258049048,6.83045002717485,-17.394203376892712,-8.630932981345122,2.856527938967771,7.904498040519771,-17.604255318137632,-5.09826975092993,1.7843598783324968,-23.356429285564634,-9.075689872402904
-10.98059278494598,-6.3226534700651955,-18.85012537566488,2.500661209284566,-7.607713841360061,-12.624297404724231,-1.6438253455099172,2.7433680485038447,-18.07631765703514,-15.217410162712191,-5.201047348541504,4.842064746864792,-9.128220778441541,-12.404135351191687,-0.6839781219676242,3.0838657085058125,-20.451418755432485,-4.697956779899827
-7.9300657545405375,-15.995339071472138,-1.2505025580394502,1.060560215183549,-11.640222145509274,-4.788543306775954,-1.4099117862148995,3.8144169357859097,-8.99896633262563,-16.363488395442598,-1.3806869379449371,2.6277944971127045,-10.731869866629246,-10.623196611936507,2.0691395103626924,5.261666665484114,-15.595112637709033,-6.571171834619256
-4.879195831454479,-9.459402327506222,0.13650837044845776,-2.918970455930674,-8.055948378537032,-5.2549051542626835,0.48278486769826223,0.6856682375151275,3.3979774946499184,-16.926144374876902,-2.443385596121235,-1.1495077681259156,-4.91438724562867,-9.136395628382154,-0.3546037529713546,2.2629861993910647,-10.740674256719986,-10.886687765067778
5.301026988538695,-7.613601396198859,-4.1420538771215485,0.13252240002238824,-7.59726858641465,-4.941202362249091,0.9092180531654481,1.5603744545159217,1.926755967734696,-8.799800104719955,-3.1156407075546926,3.66657895975006,-1.9298383848631646,-8.92031324869255,-2.095751299006025,2.8770244915745256,-10.575682425146711,-5.632606297071791
3.4696802615820594,-11.336856050283236,-3.6368072886607394,1.0352060010588722,-1.4750099023657972,-2.4802153579908746,-2.474396178938401,-0.5928193925436109,-8.236765798027122,-3.312766397634519,-2.909178384388703,3.989933503717361,-1.0946212927693324,-4.994407410314242,-0.2245782596976702,-0.7088338690623427,-9.045363320068924,-8.97327002553863
1.1503715955252387,-7.836000801319874,0.7733333254326933,-4.019576605142417,-1.1151507659795659,0.07725496546957711,-3.0273290006232654,-1.3793127088449917,4.743840821657587,-14.625427046013742,-3.5818522113609736,3.5315659501834427,2.181176182124595,-6.245534393659361,-0.6982136598772613,-0.6819656385711786,-8.29819208789581,-3.6232610400282246
4.983821238347533,-16.15429182165509,-8.197046161039045,0.6910657801863878,3.9316650927568384,-2.2493240705893425,-5.632464244587647,-1.9709961130176934,-4.151636616998533,-10.803711009154727,-3.4734943069138895,-0.24760903112180127,6.3350291051911665,-7.497835149635154,-2.6377442545348613,-2.1205690364640173,-6.67399082759866,-7.258631565404723
4.03235585963007,-7.189717790119233,-1.8365632480329417,-2.5089226472450865,-6.842708746238367,-4.772368473847989,-1.1099704968736104,0.6595225732669885,5.897743415383809,-9.621335488301916,-1.3145671784465098,-2.4646885744307276,-6.211456310116848,-1.622295085606103,-2.234524134234737,-1.9972496137403781,-6.614205564288513,-1.6173846230498388
-0.2391652266059534,-4.575445477183372,-4.852618278002712,1.6150608603720038,-6.289440566232106,-0.5581658531467255,-1.471745296659396,2.5082782056786392,4.911061208414084,-9.613441389630246,-2.378601341578275,-0.9711865986531854,-2.9382526398325624,-4.146494590458191,2.366938267804662,-1.0932645478786518,-0.8921649137323371,-6.914672019983938
8.771066662918392,-14.26858912883609,1.212110553250536,0.3675054970803444,-8.275948544981231,2.8736509956577656,-3.6903935550961795,5.821400972356387,1.2868892571681005,0.9388945796913308,-3.0522723693431235,-3.0914178831301697,4.826342725526235,-7.257813440427944,-2.603103444169058,1.763284027002289,-0.6408515277622406,-6.548676706251596
2.058695216041487,-13.80785907739443,-2.294995206515785,-1.368706191623149,-8.212336996205615,-2.9731277936851983,0.9256293804261313,0.6378035040729414,4.693350979970152,-10.289043611024036,-5.77703512512347,-4.040137503341031,-0.5937202172529803,-5.096785507315795,-2.3983350863619854,-1.5331910944662692,-9.180627763704377,-3.4491288405739025
0.3271535031452497,-0.26351217782199576,-14.78797821544578,0.508046545595457,-4.8290724079026885,-1.399014823393645,0.46208561753903865,-2.2025029619598957,4.29044463872142,-4.820108919605771,-7.91614137912467,-5.7704846845440425,2.676893769516691,-1.1790870223106493,-2.878225186163524,-6.58808613676508,-0.14390192070419516,-2.4989125720176144
2.9904868994753175,-9.378268905241445,-6.090584893119733,1.017214754594703,-10.138072925429507,6.033480183670642,-2.5419165829637036,-2.015912208723133,5.156380382779444,-1.8928772619768122,-6.344553588054719,-8.380101677064584,-5.576965603252296,6.05780895025749,-0.6247565008363103,-8.518508379620052,2.9338135189648167,-8.385595764720119
7.216612416188966,-7.362537313401776,-4.718862517433386,-0.8177830451510971,-7.049249121774547,3.6014754469296264,0.01922282834099498,-1.1462080116308795,-2.6699234021496117,5.133378037339135,0.1096116071110882,-8.255636702122963,-3.0893312026239483,4.211373170804388,-0.2278460236914519,-5.468954802629373,3.3728856102652927,1.3521062716413281
4.216324579671845,-9.255594116990256,4.952441128753689,1.1554868243928536,-2.886945585802804,3.4145453650966804,3.5555982715230012,1.8714776687024726,9.52291695608902,-5.616675022375478,4.707961237152159,-7.545544755062185,7.503040819015988,0.6059405572552556,2.023497617108336,-4.177803273865926,7.130441361929618,3.1786834081555977
0.3373673068750298,-3.631467080156959,-2.7606448781128083,3.909630597197924,-2.5340623777876963,4.984416076550181,-5.8001805699469795,3.3261525909735914,5.406230363111261,-5.0410266557058625,-0.8504208827482991,-1.6598968788781079,11.844465930967957,-3.4889332263148076,-3.9294751150569986,-4.449731869812888,3.0735041997131898,-2.8082005946769915
10.619023062413863,-3.283302185760844,0.4626397582642978,3.050046274997543,-10.189894346991036,-0.9663826966004492,0.5656135122396817,0.7763750795830654,22.382939670649247,-2.8077884896984386,-4.553640358567344,-4.1731039124924045,3.9778256812822343,-3.5809864706868346,-4.219366973996275,-5.991760688373857,1.4561435531862532,-6.6474494572007785
-12.400379695482265,0.38280097084190423,2.512751824578949,-1.716242923903224,-9.838583100127433,2.3592955604882375,3.6097310908278253,3.694947697218389,-6.930787320592792,2.352596155349186,-2.6907100747712223,-3.952168583973241,-2.4247921978839475,5.700962801116669,0.958505152766846,-4.409284507598696,10.481617195433422,-4.823376994661757
-0.9463794543901591,-11.481080927370012,12.471878610425701,0.6460842071177377,-8.120864919810083,6.56290056255631,-1.0624157007708304,7.003669665103646,-7.143166630449638,17.276176546212874,-3.269571095955201,-6.1729363840478655,6.113384952220747,4.33708472227433,-1.3843391370847278,-4.682840930337608,14.817668386525096,-5.636882836201327
-3.5548835088748705,-2.0579581015035533,1.628662849681012,5.547110586519049,-10.114951209216608,6.761560805677005,2.174422526784465,3.7688430795345242,5.8275987678631385,-1.8853637953572955,1.6200477952158021,-3.999350941922776,-3.80658507774653,8.34325611531478,0.08039748879236042,-2.0271933235876824,12.022862920627611,-4.986332882684598
-13.780491749337795,-3.086573174854081,-2.5750512798462717,3.4163745218567816,-3.8089478110060244,-0.3650712542085146,2.1872748800426285,3.560928057282224,-13.526989303971414,-0.3460224317029361,0.5521859100918043,-2.704915856621251,0.33533048738502114,3.5591126643217788,0.6651434164509706,-2.9854026960540594,5.026943112529092,1.3275654224353497
3.142940286737267,-5.973020960590739,0.6420181929187256,1.8711767238232688,-6.878912536722942,9.890428358590325,-5.125471741160347,-1.1397198719169728,2.079260873265942,-4.180404394745684,0.5581960896258815,1.2260616747202988,-3.140880971049189,8.344318071462503,-3.1457796536492286,-5.31133323798076,0.17767297438999918,-1.2461807680610066
-1.6134687788405526,-3.7835767650015146,-3.8570575646530925,1.595118495074108,-7.801237867665476,3.0548931788036144,-3.8455932170350255,0.01862120545936541,4.110461230781285,-14.462731885093707,-3.8307589178937818,6.52404495876341,-2.2233113481709728,1.5071518231491146,-5.004617838132709,-2.8525393372898242,-6.13827220171152,-5.969176263336588
-12.424492110057166,-6.38164615350856,-3.9626970596523052,-0.9274815421087029,-9.017372102380461,-0.3635354931538537,1.1440364022316167,-4.487660648165241,-4.405989511337591,-19.37640405922217,-5.192694019014617,5.27877072422625,-10.388722347596651,2.48151383392421,-1.3956912928527674,-3.4216320349497296,-7.3778113924491295,-6.0053674602414535
-0.18813500567720842,-5.466294026441135,-6.315604091477277,-2.9622092467124634,-12.187500603343263,-3.782862638102883,-0.2153166935660238,0.8690165898484457,3.5811114152920345,-14.526806989788767,-6.35968618653823,2.3731393907058216,-12.402499712885504,-5.725032532166163,0.7473020517178441,2.0635668481629725,-8.521476171276573,-2.721950271304374
-6.604264636484858,-3.478935746706826,-4.860975440194091,-2.1652812840111766,-5.397381848143349,-1.6365811053997334,-6.068141563051217,0.9517044818582199,-5.620147634650602,-9.289066788631208,-3.9137163751892663,1.7134736910534003,-10.608422063013744,-4.459848247538536,0.8384177892678686,2.079452486541075,-7.030151399395678,-5.884685622044519
2.2143424244032537,-2.8609857722111,-4.7746472145319725,-3.6149024112785275,-2.3191012364548316,-3.2021602208168862,-8.894777895233041,6.112124711118313,-1.4428853639544141,-7.081186115801236,-1.370464440445386,0.8583429465622934,-3.1509848528162214,-12.375550513237435,1.8073905681658755,5.415230156493953,-5.345265982972089,-3.6769732463863756
-0.09991633103626218,-2.5381790595963984,-5.470648082774924,-2.4281877291908933,-2.171397646204073,-10.62805426966652,-0.589618510355999,7.756397319961251,4.784608914493898,-16.106395614894552,-3.6128179517250496,4.397673449507144,-2.335055532550696,-12.089049923821545,-0.4474018490464089,9.23883419914581,-6.005905887210495,-7.817727649879573
9.695488310479199,-0.16669913703461603,-12.02715488520884,-1.3395559034940114,-3.5870625477667497,-0.47638962560913667,-6.055371982199814,4.22434184846089,8.081798884387732,-3.649331550652893,-6.441493999511662,-1.8288949495012297,1.4098325480955136,-8.77619456129952,-0.7500959878443831,2.221975693925972,-3.543221727346019,-2.8770109977438603
-0.9194843263322956,-10.883464261164725,-1.1039413431104323,-2.595136730732959,-8.714565105209555,1.4712062869987106,-1.7565073778855478,0.6918195971149169,-2.1960008329210456,0.406759619037949,-7.708021573950928,-6.004763873525895,-0.7055088135901322,-4.683099831508649,-0.9561852701535676,-1.9632526837368376,-2.4494529780246284,-5.456623660235347
-0.8896863552326941,-2.1684147954014925,-1.9006446526946759,-2.776910908684857,5.2980079280823915,-1.0742564718952092,-3.3182471790217525,0.38153701826680675,3.5415131655296044,3.3862316383793214,-8.877265410777756,-5.786136105164143,13.291920599635203,-4.692639666783039,-1.8469275880509681,-5.465312049376756,0.20514974649398443,-4.8141982305689535
5.976216612605218,8.88837756005311,-7.092906498649068,-3.9356924104815016,-12.136049867537523,1.5553542509887772,1.6619579164379479,0.36376289491326963,12.012896185583593,2.0664034979239094,-2.6248929986393943,-7.618411421359358,-3.180612313010698,1.7422353831631092,-1.4691637267571385,-5.64743414860067,1.6861874880111234,-2.2192688243036978
-3.759647068200068,-0.6626227020375257,4.511031212432332,1.3505057578162774,-11.015971668356716,1.6450927913972917,9.766103653881677,1.908048800678527,1.63579542535141,2.697396134918069,1.771612978405603,-4.665537338682844,-2.368463434911762,9.543336769275234,-1.3854127391119127,-3.4861870176587106,9.220351340473954,0.47268449249384403
-5.487541159169644,0.3314374965831828,2.246667216663953,0.7768072563511357,-12.533482330430695,8.86309113939835,-5.275725086100433,5.600342098378451,2.8794333622235326,-3.4123026292637375,0.015315203934350485,-1.615075126484067,-3.9984868576612733,6.4058035768212225,-3.158193306471063,-2.5948975914511987,4.155031792967806,-3.96499358877606
2.257385902730209,3.9603156747243435,3.301793552349885,-1.9457946974490468,-15.80965657747721,16.763954054577948,4.3887816523206435,-3.305675075026657,16.525079239031456,-2.8835546039745603,-2.327291272269066,-3.7405329304507653,5.60141066712522,4.829841273047034,-0.9280354944048037,-7.465812391380748,5.82648075512226,-2.0555170279772685
5.314746997512185,6.317737140960462,0.2544523547462596,-4.5711728136572685,-5.707538234768937,7.378672836389033,4.677090140985866,-3.4229567491064925,25.287320124321063,-5.482104940959666,-6.525752606620639,-5.963698897197241,5.239509355370096,5.010780437595348,0.7151527952502836,-8.040174594724302,7.3986762615459565,-4.638876666516424
-2.467910562728502,-0.7995129697011052,-1.0358609918645403,-3.2906757856461315,2.9289034626113715,0.5317840798271919,0.27678976252573184,-1.489886124935904,1.040733668285209,3.6360527658816686,-7.208888031506714,-5.06185871261835,5.951143850549748,-0.6686672066283843,0.5994849171136893,-3.6343703810147137,6.723168332633989,-4.586038774008422
-0.6801344058952918,11.12466111161976,-4.182451327943193,-4.745030327667362,-0.5450171092064853,1.5944786887285523,1.2466458665069204,-5.221423810222414,3.1612324109290606,5.037059148604012,-2.91182579983609,-3.769420709600719,4.415961162605408,-1.6614499309440576,-0.3961128868893429,-5.283714708973473,5.557817031727557,-0.23680270906657697
4.6232800064754205,3.8084611904470744,-5.181319215717653,-0.24269777935201975,0.5701824210977353,-0.4685529378120743,-1.8861239818374944,-2.8009823843509554,8.113307230886846,-0.9860806664548489,-1.5448366433648033,-2.5746657192317204,1.3175758001487532,-1.8738612210199987,0.07215206438740474,-4.101343526426968,2.5354351547747376,-0.1850302143136604
8.657087580635302,11.822763458513323,-13.309917350571066,0.2552323240652974,-2.807658244919648,2.252981014888426,1.327876998989086,-0.4786563467008924,1.1506453289781333,7.0513690151093105,0.505422605416574,-1.282270936878167,1.5388852378750912,0.8425856387533468,1.0277096172879951,-3.114637071667461,5.956952169508559,-0.32907651258144544
3.608653026870515,0.8897375045804585,-4.446750797216756,-0.6144809063239612,3.2865279644706042,3.1183688999146453,-4.4435975936135605,-1.086519281626359,16.160488199369908,-9.327707627452032,-3.6947402704929226,-3.70088147353134,8.693236456784875,-2.5942624529640375,-1.3380845231351957,-3.8861094915482908,6.544904698864122,-4.37991576528605
0.02499595303382529,1.3809770380237065,-12.57667952376054,0.07789502655508618,-1.5577157399989465,6.424565775722468,-13.145748874761342,1.2348941129693665,-1.6431510099387383,-0.2201706865299169,-4.184227906469111,-5.045261903226399,-5.051815770029469,3.2455344625013396,0.6897390001336157,-5.927462418681887,2.4438179797530566,-3.060042452318596
1.8124093931175136,-3.4029548749633283,-9.378924836225883,-1.573949027361236,6.097479813103602,2.405811921784095,-7.102506701959092,-2.8895583047873097,-2.6501352455312377,-3.5171877640163496,-4.869341513306484,-1.506754822594679,12.648288090692,-7.517307463778384,-3.0452165928761112,-3.5745373059041023,-1.3657405934877378,-8.869626891315367
-0.013635556692139339,2.6515055780662493,-5.986434630941945,-1.5660451073769561,2.033007216415042,3.757627642428634,-2.036747896197369,-4.377705769420905,-0.9231743292818497,-4.0817727188099715,-3.015655461954958,3.1059927930866325,9.839641200187558,-6.171395086187514,-2.679511052473527,-1.6125538683089244,-1.661042616118584,-1.9841272312344733
-2.621081477479206,6.360600183646834,-3.8640401343922903,1.6641314000467164,-7.305709953909881,-4.461607431654786,-1.4641316157061288,0.2861313209206473,8.615938678301013,-8.359299161284161,0.4979199872236437,0.7850504675666965,-4.200260125880783,-6.09582101668034,-1.826471974380342,-0.8227645634163867,-0.0045886315755612195,-3.8882255485066404
-7.963100445651847,13.779145507769476,-5.062518649313886,-3.797662877771836,-0.531613329257282,-7.212587668113156,-2.5525637842746143,3.7776234397903643,-1.4746170562801248,-4.240169285412214,-0.38338517320946774,3.0540350499193725,-2.5178685270758123,-5.142096958357414,-3.3181647472865623,4.458988890857527,-5.1855516491323845,-0.7145018705230468
3.7848112901988182,4.106079507359414,-1.1832689519938722,-3.2051081062286064,0.5776348401706048,-7.327374107470171,-8.91536107037572,5.022536459248405,4.254921975500071,-5.68940114245047,0.4928770309684527,4.4441158753039085,-2.69156607338467,-8.095433954099134,-4.51782103452085,4.66225718357036,-5.7779521793094375,-2.9123134338589187
-5.854513599684843,14.256064448888498,-5.703023312328011,-1.050459112523215,3.053406138757053,-6.466135143132876,-4.829607512166955,8.513127471462184,-7.789703303590398,0.4768397033274425,-0.6819344721033351,9.642866496705516,-4.623683803255592,-3.139227031113831,-0.15191324699822228,8.185615036279826,-1.9770815340648806,2.4091824694587327
-2.3102530351920962,6.435591240282772,-0.1644327122842757,2.9592586842859214,6.212111144367801,-2.9686762465750003,-0.3540304841739874,8.585248629556949,-8.11585214850887,2.0513759474259228,1.756340470977066,11.228299907185633,0.3773284366260796,-3.359594779271122,1.381002844054409,13.075916541759371,-0.03301065453368812,2.554500647943831
7.093244333967848,12.481119318381495,9.084786097743129,3.5505288139829156,7.026375106994797,-6.796074218184628,8.22238403541095,9.828814841016928,10.893782087275666,2.4522693702309573,3.315457454703906,15.548169651852948,5.866071130158749,-4.166604671086311,1.838776690944286,14.743256615214507,2.0074399328301125,5.922227762458707
-9.480463123655209,17.54870810792183,3.8803300013472075,5.313266692488321,12.42991317796604,-1.639474024267865,0.7821614870426501,1.5014758572490714,0.2150164618617496,2.558481137756159,5.557952361603428,8.930391716869586,4.518225144295891,-2.7281633709013837,3.8581776460918853,7.425837078496893,-2.3987734644126624,5.481027479974054
-9.745592477916311,7.380363215434802,5.413965313033188,0.532512606055588,0.938038508297824,0.09860349280404856,-4.412680825992698,-4.775496025217062,-9.194643101652048,6.081047476085672,3.6009506087396126,3.093893673423528,-7.86548093297119,-0.8020912213064997,1.9703828591892512,-1.4543455550258455,-2.4116165850051794,3.3793909549165253
-1.2218084706243646,11.761730760305634,2.455088741132501,2.392063354852471,-1.3746159488371,-1.484172059639616,1.3294158303448453,-3.0449773757080925,11.962127427967204,-5.827932797423907,1.5460900746011594,7.706789680512048,-5.894023222327124,-4.247833565560035,5.257572979781878,0.3099342542591481,-3.4022398389859725,7.136984931058601
5.250860792355669,17.899681843576754,-2.8477925210737727,0.24722726641400494,2.2692610484226234,4.549877779685354,2.8715215369388813,-9.127520742972042,0.9890605610202683,12.730721377878968,1.8348274097195896,4.995368032644901,-4.801997720253512,4.610679688001587,6.688401744652065,-5.933944090331247,2.5396591967680227,4.253639273793741
2.348065651663532,17.10271230899992,-5.709412243827108,-4.144154215287173,6.986799466602182,-3.381596309240398,3.9246501386064123,-10.718249435274702,4.66421519294081,5.701510857382521,-3.3454431090863763,2.5769285603041236,2.344306602396125,0.38245526714389033,0.9893624149987863,-6.9045204238509825,6.722567278227506,0.29586559376436483
-13.05526092422398,15.13266317533758,-7.301626326041028,-2.1881977199691782,7.602156336031799,0.405402252112135,-1.858931860464358,-14.067257298949356,-18.614604916954356,7.16703111358121,-0.8109127473747537,4.846064755844058,-1.7405187743176276,0.6459055737923016,-0.7065512100584506,-6.117466160691426,1.5292064413948965,2.2950413937553984
12.947934076449808,-0.41296458921034684,5.26642389986563,-2.0881510669535395,12.513914828464575,3.410693305804521,-5.104061923194287,-10.385346104551893,7.618611508528363,2.869296689568655,-0.22968364841651967,5.455017770464682,-1.0405929870855415,3.8385259315619047,1.3076992604422815,-3.670432098400894,3.9520493581507434,5.172984160716682
-4.1163143088561345,7.185172872614716,0.6466407710410147,-4.332300493010889,14.983708635418825,-3.0572517963245645,-1.904411112662542,-5.922609505783473,-4.918732177450858,2.281153393282998,-1.601741380088153,3.622519006039232,1.319047746292441,2.9289781813344717,0.8796879912347113,-1.0282776982182957,5.006609927395868,5.9023236578605935
4.2100498174292955,-0.15940994268713116,-2.0200218057041175,-2.182259356305917,7.882540710206447,0.04483612795157371,-4.271862310059309,-6.9291410566467455,13.696306093017702,-10.6132227595273,-6.880226024779516,3.645501404016633,-5.403936546661534,5.534585126419451,-2.4788617485418922,-0.9254133597687295,3.618679087111592,2.725239976193545
14.000859984586166,1.7724392435028045,-0.7803723048716535,-1.4974893884467868,10.644319529679919,-2.7129563905780594,-3.2218844658429093,-5.787635112415163,12.095754824504521,5.593095806177724,-5.127455692031744,0.9340425961162926,3.497873798018882,3.3544578462422914,-3.7873930712942023,-4.143095012127619,4.085223555466021,-2.4050929885284047
1.3299495259970606,4.191556105200721,0.7522894595282787,-2.9615919936894066,2.9562535258482177,1.2672282028458637,-2.660768452278547,-5.427821866788353,3.8540394030116802,0.9970499668859496,-1.1286443935772703,-0.41024187928657563,-0.5892277157884122,2.736368337730272,-1.3857120892390913,-4.626537123079807,8.55473982573601,0.6677484848811792
-4.993668743809951,11.590228527058475,9.023410721459209,-3.1565433955107136,5.8147753892426,4.954041285552142,-1.1236296825515284,-2.0410473512084786,-14.056230918574283,16.614936973114002,7.069378173420812,2.835342881234483,-0.9657562145255209,6.805383048685812,0.9175417964550943,0.8469710104153276,10.093554603071603,2.6662974585380814
-5.751277463078808,10.101088789539764,6.942923120478078,2.8982041142184887,7.403317293416203,-0.344047770718829,3.3427048565669493,0.7593542398866413,-5.5016933984527085,6.254692409914506,5.5015708983468325,7.936368651347756,2.8565882470341037,2.0847524584200654,1.9504883206983363,4.269499592994616,7.920432254034041,9.059405359116571
5.307197832909534,16.0330104093521,0.2726692336565799,3.58138250341485,12.507127396550247,-1.6385517201565631,3.120949344275168,1.6061768167781456,17.408090772930375,-2.6418118195291354,3.5430927771465868,6.884888248784973,7.557453672956505,6.543519206623644,-0.43533003740513354,1.9300589952683014,4.476842591886596,6.956268046150756
2.107119439391137,7.706005515860154,-1.514514524681927,-0.6187164055707591,7.7471143448219335,-1.761537669438972,6.902660236360662,-0.08652371413734561,1.547309245885605,-0.9923587282803179,1.8775641316335436,5.2473793757604,12.35558922500954,-0.4240816047080477,-1.4546711100641811,2.324876687365422,5.817591828348302,7.685200488759461
0.3713622507673004,15.491661254855815,-1.6412982784105692,0.06368459398431181,1.9124939442603526,0.06826319678985504,7.26586651335403,0.36882658941711166,-2.1066996395099027,5.050661416399629,3.6300489710997628,7.711399073208911,-7.651717844648378,11.065236577771444,3.2870764421282876,2.9148550685665584,4.716033522382668,10.464957411485829
8.693785954408632,6.284033202633885,7.8026298726392564,2.3082255956366,7.601134010975039,6.780589500637113,3.234007627725302,-0.3481329598180911,4.981195707354437,3.377736384396525,9.386510231883284,7.343232301686603,0.5636962433529578,8.882095102143776,4.317124984468275,3.5046818495509844,6.055081010474832,14.611950790803553
-15.895036728729512,11.919573649490303,12.754589914165651,4.845359295816657,4.500244076890601,6.265887393292238,5.256478227238993,-1.4561379078614416,-8.732457376423385,10.786045190815624,8.990559593209214,2.580338723145063,-4.112066336461957,12.558059617366641,3.6863003378695947,2.4341781707827663,8.174579035501868,11.141684184274746
5.121695486102152,2.1244116823614023,11.945065375931136,2.108597879601487,2.4732755186926463,3.9929957485440193,5.813648350650589,1.1464394129707824,-7.309613404059613,15.75202235382147,4.297710918164147,8.559650556074523,0.9776007829481561,3.6358346119155027,3.6407439168396882,5.172179719151327,5.898693687666566,11.675443795050684
21.645539956028372,0.043459774474010615,12.698420476254562,-1.5074569237673277,-4.046243086687448,5.919041626467931,7.639950306488684,6.580681965803824,13.253691803811058,3.7247125711603895,8.68709154307921,7.214467364944232,-5.4566792194704234,9.068973480416272,4.668757921497328,7.812378629626392,9.774487209844681,13.674142968411084
5.941676369516425,0.8915162566535244,15.502977152692491,4.348918809208904,4.082625236148987,11.165109752134292,10.833056954567457,4.104240995901342,0.6129060881930906,5.759325291783345,7.607715253109811,12.705141954991294,5.882426093685777,14.013516569654033,3.059361829724336,7.229728445684399,15.798018554073893,11.278331335817628
12.600759196917638,0.957614146501693,11.178940573264178,3.5642014664351818,-0.6795821788490202,2.8364149329532515,14.025774568913787,3.3852354677815324,5.452392861974513,4.765804167056449,7.5050100850667825,10.57830826902804,-2.6033029769549065,11.145149940605567,2.9141944307174636,8.111801396427754,6.293263044146595,12.398299330532778
2.8526431879655307,3.952774265816106,-1.8361808809336924,2.8767786670131845,3.8354618796338147,7.0075770943568,4.034322366104554,1.00564719242032,6.580418525399326,-6.091844360023187,1.0546628328248517,6.302778241668112,11.86023385355258,-1.4892649206703368,0.619933140197233,4.892106459432166,4.112158156129626,3.4596339914663283
-10.02124155192901,-0.47469758128859674,4.290100415823733,2.188996256225297,-7.567919195824718,3.5611045263057512,10.15603600763224,-3.718125274605145,-12.897810220547672,2.483750069221127,1.9287745330938115,4.468443157072993,-4.341052804941719,3.259139746746089,1.3524520818640164,2.160557039835696,-2.36654090269551,5.361104059187699
-3.2666642511254587,2.226227716012561,4.655091859565804,-1.5265320910848061,-7.0572489666140665,3.2393508474751482,5.0467613462487915,0.8351918966988103,-6.59487132449383,6.957120450412149,-1.2985928825990845,3.024466990058544,-2.3782831025255833,0.19468270053499692,0.3265359792515045,3.9211195465434985,-1.6191945047080223,-0.8428802712669992
-4.813761385756168,2.0944860743488434,5.118288418945187,1.202998069801754,-10.941349384500684,2.038350356164737,13.99986563054423,5.778747120488987,-5.468273178882769,-0.8749349789685914,4.263399920604315,5.6818194145971725,-9.107325969577957,8.653611911577057,-0.5046462816701702,11.833974062363833,2.64322953149586,4.672213461284951
13.56053104323651,9.091191989070035,-5.160289087843222,1.6860515485896934,-2.8136993015111607,1.6182857159886923,17.776786057813673,4.471816843898853,11.869024289337274,-4.312894217683377,1.5246661623323408,10.09668925907811,7.2105935670744845,-1.3449837101881785,2.081624898796089,13.105954560502905,-6.0834005472288215,3.4490830154157868
21.48463285746648,-2.6629310748076893,-6.649063261057702,-1.2492608246284698,-7.8699747162046885,3.6393390251978497,4.072658820356132,7.07080882449879,17.975190838834067,-12.341220904058007,-4.143600599513794,9.433008361722472,1.1646355835961297,-4.7030501074369635,-1.4850947467285105,11.936341224412402,-12.564450917218515,5.155854742968974
12.513110129446968,-13.538653136074938,-3.1566572104468804,-0.9622089799570325,-4.332478469904127,3.7069119260189565,5.602837755200847,1.9544547729639543,12.654905486103502,-21.444187933301095,-3.46389709595689,7.108770346135457,-3.4167022806725327,0.43492433356213045,0.1235069944882112,9.7899969368965,-16.3116064766203,4.909651150534908
9.888481863762205,-2.8325094493008995,-6.987918069219022,-1.7497297152954696,-0.20912399942794413,-0.9134129258742876,5.863175108096621,14.70908539551887,-12.295087679124864,4.316301517964629,-4.9324286585816495,11.229539449702227,-2.4317860977309365,2.252367317085051,-0.7098591620311894,20.33900152098467,-9.609879308005102,9.155892039276392
13.122436157033935,-1.1113492084737748,-11.892722991597829,1.6616987318246113,0.496142746208708,8.235676165495342,2.021606182829489,13.009991498545821,-17.714040827585304,12.693404905330521,-1.517819833402048,8.318518444457911,1.3849760394272035,3.288394058200526,0.8000505859226925,18.289995909522897,-1.736728228820625,7.933496309610112
29.539280281787637,-1.929738451730029,-9.570137253587713,7.221267639098336,-1.728367999058113,3.6146947205746627,12.633110813475227,9.747997576733653,13.68345985970942,2.710593218307311,-0.9350138258147874,9.80163296338099,1.9788126536827277,5.203199821496058,3.579015720568871,13.506406915971311,1.2530934189374987,13.156716101118494
16.95084724709877,2.622622536847497,-0.2154502068684545,7.995281301871858,3.4690858833441673,4.266899736334275,17.58020318153988,4.43481773342695,20.37303169880909,-6.198194920522715,1.9918679561048793,11.186596144573672,2.377121873122746,8.875717661985151,5.869211630853267,12.62895536867719,4.340156979600337,10.762844131697662
1.8223613923655435,-10.989759191409822,13.534604589209035,4.472032290140328,5.932121207398661,6.285978708719063,10.026849573978486,-1.5623368517568754,-6.239213041983794,5.010348078584502,-0.4521174980976197,10.520221541817788,1.2127032836335343,9.61838915988613,4.35028995089124,5.501230243921014,4.887730116251505,10.322345697344199
3.8806630297233213,-8.684310235377378,21.621304598858913,-0.32108555785316373,4.879497959151968,4.789041166234398,14.778123535710243,-2.091025710977309,2.695425641355218,3.718585183950444,1.5964801188682063,8.486080891194144,4.442686737625022,10.849248042905732,2.1473132517148086,4.916388917865767,3.774759185583747,9.003152572468528
6.426255474613802,-1.7893066835890643,20.724310608747324,-0.5246039134939311,7.440253189381483,1.4362646640492653,20.701049702737386,-5.3544961466237515,6.356005392584585,2.915043905424082,4.231369844330177,11.334236343956118,13.922576750330926,4.755687643268944,1.3111090518115383,4.23369796412441,0.02469352990903051,8.270136587536397
-1.1855779590604998,-6.027623250037514,14.066351228725356,-5.2206886605365534,-5.428850299182018,-0.9402809192075781,8.459402013850934,-5.590938582155371,4.058914879384746,-5.212847015035818,0.2258976375925813,2.5604958571666216,2.0152400570223374,-0.65434507741295,0.0838530952787746,-4.945415861591395,-7.7296484203676705,3.7287046707221383
8.584622582640765,-4.30913427672918,11.706196096780651,-4.936535024700876,-2.96560212717768,5.667333969501685,4.030145322169897,-2.116745880781487,4.691001141831408,5.311919119718886,-1.6307210751492496,2.6729501916081535,7.295490943604653,-2.060474949240281,-2.022728158349363,1.4028434476875287,-1.0309269371731287,0.7500372881327468
17.08420605052352,-1.907336908785319,14.71810196488962,-1.6252937938325465,-8.99846854988417,3.094763978872654,5.753103529834266,4.286823047267633,-1.806490515403003,22.575145685953668,4.032708309339904,3.468313832923042,-7.541920659462649,7.568667067037235,-0.3210479256706671,4.430523524175866,-0.19192507735579079,7.537388913463131
-9.671743585970798,5.767703153774439,-3.753788896172148,-2.3183182070779638,-3.605248140440722,5.307059722478967,0.5421444717767017,-2.200782627701585,-9.867076500339738,4.09576323594993,1.6886240845294662,-5.893458355567299,-3.629207783856316,8.603886706489828,-0.08460881803932718,-4.846896678492191,6.310997437963766,2.3130873619536336
