Fp1||F7,F7||T7,T7||P7,P7||O1,Fp2||F8,F8||T8,T8||P8,P8||O2,Fp1||F3,F3||C3,C3||P3,P3||O1,Fp2||F4,F4||C4,C4||P4,P4||O2,Fz||Cz,Cz||Pz
-4.7266954300864255,11.152554943043432,-0.5023307156004932,-11.547171072719426,-15.448425939043537,6.307684834088629,10.769571811583742,-9.990806248475621,-0.3773209312214689,2.049614992609066,3.597809930763475,-10.893746267622255,1.8777648900206465,-4.941441747074657,3.5824721885738224,-8.880770873231885,1.3605426870115487,3.0684491408063987
9.610203795433046,20.842041647538622,-0.21627721655979926,-15.31103319899363,-22.122144237131895,33.40692178902366,31.918924457062673,-17.252422717493424,-8.575475048121344,-4.368972964677187,-4.6057173408864855,32.475100380995585,1.8930650156767292,-6.651468063083909,13.153737669146494,17.55594466985333,-21.79980091300075,10.742498289655591
0.5089071714201427,29.653353269999442,-9.403708633460987,-22.688894032389463,-17.367286172429104,18.806971373229523,26.312259715564227,-13.969417144126076,-6.915493644194608,-0.630064693651095,-16.518644353308197,22.1338604666159,12.842535122158914,-12.264576528213652,2.9035827749208423,10.300986403500943,-13.122030208392381,-4.43288284759469
7.716191675406142,25.769888640251974,-17.029394575356637,-15.418692576790033,-16.12532157612816,19.832892399334213,24.907080790964603,-20.845358304090027,-8.77668878265392,-12.026979454991078,-14.17207426443241,36.01373566548223,9.920951829653962,-17.38619719433837,6.524009644425866,8.710529030464524,-17.82166003911357,-2.4179633625704704
1.1535510510806422,10.070551731752683,-9.323687572678912,-7.953709184831328,-18.20077046362561,10.117060109215242,30.340144291659765,-19.716032658577383,-12.108447350941368,-9.164702418542035,-13.972635599517346,29.192491394217733,14.612861349486243,-17.03581516313555,-0.496993740076376,5.460348832520005,-9.140451762989766,-8.310725598226066
-1.698200587260061,6.0908411604963195,-3.083812374195956,-15.137853590311492,-19.78481650706902,4.015127151269397,33.724591477429534,-20.34733846511971,-18.082859210856924,-4.641047415854214,-8.791442235976927,17.686323471311262,15.199179129529085,-19.80734289836776,-2.3387938244467055,4.554521249914885,-11.102192622630815,-9.024976112950592
-4.745293334461062,16.174524871853087,-12.763207432059762,-19.58797972353534,-20.389006725284347,-1.7933049786373196,33.107261094760155,-26.059761108638142,-14.59055890087079,-6.561572650681928,-12.593680536844975,12.823856470089538,16.269664225543274,-23.357027446506144,-2.8099639990958645,-5.237484497624533,-14.234066021040992,-9.24823081195408
-1.4445782506284077,16.78606862647682,-18.4397860502898,-13.882029476099483,-17.083444959643888,-1.0581763920695284,37.76562989856744,-36.755762910139495,-8.370121930289123,-14.730928851855827,-18.152807763463144,24.273533394962683,12.160014107276798,-29.63805789779309,6.683454095641769,-6.337164668297432,-26.251018671960907,-7.124937685935739
-1.4640904605987046,6.362928683674731,-17.476880834418452,-10.910753183571417,-18.266533381837693,-0.3225912523125931,35.88310062890214,-37.200854179537345,-6.257778464075734,-22.996645056655474,-19.60948994311792,25.375117668831315,8.436567616028752,-34.353529455193375,11.981164048593305,-5.971080394103457,-29.086354960049974,1.9348712885363248
-4.120143878211161,-3.083013832512295,-1.573674677638043,-13.017863772880652,-20.12945727275578,0.022783860371271558,38.787958264018116,-32.57101050173398,-15.57804407770206,-16.12408094860254,-15.303676231659187,25.211105096618276,3.438992208452799,-31.546357230218884,14.352791001451283,-0.1351516296775852,-23.130693248878448,0.45051411719415824
-5.311030798757924,-1.6883490752513524,6.222515804878767,-17.957158945236596,-19.44934913712023,0.466202028988584,28.022874843084573,-26.772654308333976,-33.88965683934941,1.5898552566445794,-4.1612624304008055,17.72704099863583,-4.3953854004671165,-30.298749822168745,14.677327676911283,2.283880972448852,-6.5285250013489105,10.102061817540497
-3.278828610376512,17.08996866534369,-1.998675341992584,-22.994146299429936,-12.905684683038796,4.523306330540217,29.467134217390687,-35.04050324545914,-35.11817800980401,14.617614694663507,-12.647627169954688,21.966508898537874,-9.695537293497203,-19.477765150214843,17.44710165718911,-2.22954659394137,0.9932965915852119,5.791527058858792
-1.0508433414664955,24.345224479318055,-16.569219835123867,-19.241894444510436,-10.85002434613905,7.213516547405489,25.054034958136118,-43.800238873797255,-31.95928779497158,10.263722401644666,-12.344499141525805,21.5233313929688,-18.5163893625744,-13.829763827757857,18.658215542522324,-8.694774066484609,8.223977263371575,13.3982620040473
0.2987743641487839,5.819363552205765,-11.80521892118393,-7.579244686911166,-11.524370061182234,-4.646997564085451,33.72915693176617,-42.602587598355434,-23.338920960763165,-5.0263801133353185,-12.431836919375954,27.530812301633617,-24.607990321249808,-10.71803031554019,15.576320904112526,-5.295098559081859,2.175045459475584,1.1835512393530423
-1.671333962880869,-7.334820664745784,4.871253406701755,-10.760370856135738,-13.854329391718814,-10.647803445494738,25.70686546470902,-37.30711549935277,-26.640320895193117,-7.912462921355857,5.938172499196089,13.719339240193015,-13.32182117871591,-21.763880765912692,8.494457549265405,-9.51113847639897,2.8663445140425345,9.18711742417127
-4.421981554185628,-5.937527121289534,14.612168791399142,-20.484284201546732,-17.25380022407987,-18.699212935371722,29.69851002877963,-37.87501073554523,-27.996249700545672,8.343887429907854,2.6280673147056515,0.7926708702112961,-4.8731739931844515,-20.99040305211806,-5.810015121800486,-12.455921699021522,7.661120730109154,-6.341658782690791
0.4454832115016867,6.886169136188076,2.866440744624576,-26.496840008897003,-28.070381793644927,-21.67224559951694,22.16854694294811,-36.20077646216026,-28.77407232842119,18.6446604260282,-6.93235980848743,0.7630247942008346,-4.438046536436945,-30.761268137095865,-9.270352171859024,-19.30519006689198,10.50459814722626,-11.124863344242147
-8.944187089483474,11.31171868926588,-11.127437760466025,-19.813443083319026,-41.22571971924448,-16.734861232654232,22.160205073548592,-31.014954504297712,-21.06366363972173,7.657618856781196,-24.11044710253776,8.943142641380021,-4.39927019546455,-30.666058574737765,-17.12109991419784,-14.62890169815994,-11.845762856805361,-30.944093432641328
-16.37972087559148,0.6007085206947576,-16.724853438075396,-9.711494595863078,21.504185579717394,-2.2269121315212352,16.880287879625808,-36.08737547472767,-6.427694351944542,-14.363147308395552,-28.78882947990956,7.364310751320225,33.91548755326677,10.15501944835518,-23.209761485242918,-20.790559663199495,-16.811186485610865,-32.40035675184969
-1.1575902159066116,-1.1254292488510114,-7.9687630126811575,-6.2496566653616075,45.078663594938064,-8.715304420166126,8.379573235651112,-37.16009532656747,-12.796419929118942,5.805856798916917,-13.838620722753003,4.327744710061905,28.375937347319176,19.435184270629,-17.770505602332726,-22.457778931677197,24.319702485055345,-22.720281994960956
8.694520744576499,-5.1950228826090346,-2.339979255492575,-17.04514700441926,45.611386278500156,-13.93410635315795,11.794974149790558,-34.52617001534449,-34.60348572689064,15.722450430441588,3.0640000362570685,-0.06859313784351428,9.64648247153288,16.998901229198687,-2.170485380483988,-15.528814260379233,38.98720124530257,-3.271034578443804
8.196154735976817,-4.576746178208905,3.970074067302881,-28.91408384694121,37.94647222468068,-12.90280570173469,15.016892130889946,-39.70929230346873,-55.44252255869879,14.703054301197035,10.688265230372384,8.726601805169565,-6.061816418184057,14.760356693521008,6.109616861120558,-14.456890786012945,31.390589187148063,8.46669178102481
0.17947385034064656,7.46775319869393,4.906543156756771,-14.609870094283007,30.58028399929041,-16.266128140052558,16.482762669486057,-32.68970155645503,-52.071113900253124,9.583734283770973,10.596572037287466,29.83470769061551,-17.186556646530086,18.188324105690132,4.726066381404065,-7.6206168682206705,20.963751583251913,12.981226325595113
-4.222451808604192,10.918606169260332,-0.01893281102673572,-1.7695579333954523,24.489535082949743,-17.578694269835175,16.680831895816944,-25.47937255825733,-39.13804073918092,12.376415624259199,0.05437792392295959,31.614910807147176,-18.844969202590985,22.30219657642373,3.9329747104531503,-9.277901933539955,16.984167122650902,11.835132161379365
-5.693138644172865,13.393083531351254,-5.337590658306635,1.3060335848057765,20.553277954651524,-20.7468445736054,21.372862057616505,-16.02756215828879,-32.952259858991255,15.073185968388858,1.034549537802438,20.51291216639402,-22.853755338203445,29.933984236512853,8.124986700155054,-10.05348231802174,18.57290788866508,6.200340106289626
11.4903972836056,10.88718445726867,-2.84624856390831,-5.285348436943218,13.986412743703156,-14.44231147598165,33.683854625656124,-8.728934699911777,-32.732617617840226,22.849926993449802,8.849391465491674,15.2792838988402,-26.18563637571625,38.44686152772323,15.739622721892612,-3.5018266803677545,22.995547253860487,11.50680966273606
11.780826291859793,13.947910886514551,-1.3341695049091817,-22.031902923502187,13.7735773627777,-19.368565552333727,42.57843701840524,-8.8570708372274,-34.76822216316717,27.30809359799415,-4.821963750624571,14.644757065681594,-19.07494601616039,39.442193937438134,9.784477812310232,-2.0253477419031025,21.755850262163904,-7.109237260121845
-2.0873472674432136,12.61413885398258,-1.5826797151576646,-26.4722595435454,7.1217299472279425,-24.880942164032184,40.048624932967655,-18.16986923743366,-35.34817553838758,10.47868123895323,-11.072946704252862,18.414293331447027,-18.41657734807934,28.427654233952392,5.201225581793981,-11.092758988877119,16.6116430036621,-13.905034098713374
-14.781770712750141,16.16331876722289,-7.107520035190468,-2.883431803519782,4.773340132857602,-23.362165976741842,40.45005496599779,-10.10448059707296,-33.1053593562782,-0.48943959494586053,-3.0676360446160627,28.053031211528747,-15.714407239674081,30.110577131370903,2.380533851715211,-5.01995521831412,11.859851140097891,-13.8610934369018
-13.216219581953025,14.634325835333222,-17.71343499834495,15.921670078061695,-1.181754828101345,-16.179473102666282,40.26699575807162,-1.1651156976645218,-37.512658108590756,-5.986882046938064,7.865551201969608,35.26033028658501,-18.585835788480587,26.42420478372551,12.357761555607823,1.5445215788412607,16.387312448506115,1.3235232465341098
-10.965032715417475,3.730183850954873,-14.161907565264357,21.25159773627619,-3.0284834205270137,-17.20028974396832,53.56210775443297,10.015384424377512,-37.534824506586794,-0.9354267232507594,8.249729086949145,30.075363449369394,-24.784827339219177,34.55622113943313,18.140493591177794,15.436831622975205,17.596160208647618,4.695308682894405
-4.414786983703468,-0.7285892196909831,-0.6522760224104482,-0.37032651973697206,0.40515298069485994,-16.26823738381444,43.713682947387426,6.63984234827641,-37.07823908426743,2.7506980778200494,4.530192082734449,23.631370178105882,-26.498850948738657,30.482741402703375,23.04912213780155,7.457428300827109,19.490341865125554,8.070876791242952
-8.116399270242333,0.6720240030628304,2.307281107620212,-10.857493743715624,3.8457377096558947,-18.168571108911596,39.43304027029026,-4.84637393082922,-35.75233533175246,-1.080930178997078,-3.6838056428785086,24.522483250291153,-27.634300293854302,30.317209565904413,16.536637559255567,1.0442861089461921,7.8118058092461045,3.832949507570321
-14.745453068996031,1.193603080067895,-8.50599226863163,0.0442488196520987,12.371569972151091,-15.08869690130871,23.044070997532913,-6.47427983656857,-39.22132009878678,-17.21552656974298,2.162593243442542,32.26065998712092,-23.503683630761888,21.071060654497142,17.255691759800253,-0.9704045516848128,-5.622884583026128,13.270938106043932
-16.293928151139028,2.4962930877722913,-21.959161963437133,3.4282997842744134,18.072464811711725,-13.864681151789222,21.500252682060584,-6.447161922459021,-42.21172676748719,-20.750354068968427,2.92836003427194,27.705223559599105,-26.411951625218286,25.49846018919102,16.22179338223615,3.952572473356623,-13.684739077045204,10.700879064909289
-7.390563788492369,-6.259951717546736,-17.544148199917178,5.349528293522155,21.925086761225778,-8.63708343921278,21.910704071230846,-13.554249973338107,-38.2781892313807,-21.646489780881556,10.527629113807228,23.551914485969448,-27.862951838263022,28.56002587747241,15.974061566453031,4.973321814282284,-6.119721349252783,11.064426926551118
-3.855829441177455,-6.813170546589385,-14.597226589041943,-0.5397300418476672,21.488074448447957,-6.730257688798858,15.583826051686568,-18.225115437435953,-26.639483678721227,-11.212383345341568,-12.051991140823855,24.0979015461825,-27.075488771891052,30.158007310406475,7.039710542576879,1.9942982928439479,-8.416529543700317,2.1543825987006358
-4.810721647526283,-13.323772310740178,-16.634116200644833,-11.211997187220215,21.35141865744957,-7.069991625679438,1.8359536620758732,-13.037796876502178,-12.569159534941907,-14.741378878492128,-29.946793732325794,11.27672479958443,-24.24493973033027,27.460235025046874,-0.22952711377861945,0.09381563644001378,-5.9265321669175375,-6.84940983687348
-4.883981607214976,-17.6862010914865,-23.36188155432371,-8.89347707076197,22.980057225078188,-4.38278962728682,-8.981253811324748,-7.465118750380189,-16.575367024991426,-12.213629989616997,-33.97705536692792,7.9405110577091875,-21.32451667780223,22.12679330823183,0.7094263775603267,0.6391920281283463,3.3033945124562827,-14.482069724555124
-4.759131183423124,-10.134719258709085,-20.424869862459715,1.3377143683985206,24.811532656652005,2.7961925571622395,-7.883345678340966,-0.04223550394641862,-21.568019753334372,-7.633095292727346,-22.97098541675231,18.191094526584568,-26.02923352653343,29.880478769794856,6.829187307528132,9.001711480766867,13.511411224865913,-11.36844145118219
-0.9204102565038546,-5.610997259677399,-17.979518346661255,4.149397562275668,24.404462289411313,8.607469132379478,-14.401931448818289,1.222900714844311,-25.69163211872921,-1.6833711835655247,-11.96797602366998,18.981451025365807,-26.933182349089194,30.31072195673967,6.215514634110432,10.239846446083186,20.302885546372895,-3.8562675992510584
1.651716988777614,-5.77525265924481,-19.248561878936776,-6.024834054357074,27.520708010874515,9.144709540430032,-19.161929477182127,-1.1306232471762918,-23.379717731107508,3.6823943556780177,-18.74183389788493,9.042225669525328,-21.30198927099887,33.08553521883319,-5.233216477897681,9.822535357034464,18.990210330816065,-14.211504468764371
-1.8278991342967976,-4.084452583594928,-21.399952613202032,-11.313530521922349,26.5430155788829,4.407893234185254,-27.632234392986348,-4.075428813982828,-20.39408140131785,-1.8875132934676846,-26.983812228387173,10.639572070132624,-21.92885623887978,20.138130603992572,-3.102573770717285,4.1365450117260965,6.350643049225889,-13.72277012587203
-5.109084729273017,-2.7847604626285207,-20.429746966786443,-7.419668966495292,29.479363339111586,3.4791698765461376,-25.847850163717993,-6.43963147525902,-14.683902087175372,-9.408577206703757,-30.639224653207915,18.988442821883883,-23.34498289611199,20.37509112842873,0.8885081116876243,2.752435232696551,-1.5999854847635628,-16.159801761746284
-1.2580628417880013,-13.20450920986736,-23.369323116684775,3.898992292138187,33.59537228964689,6.4561773880464965,-29.14110227991553,-13.203781384505028,-17.47980478154409,-14.29087979145991,-26.0948260001063,23.932607696892582,-26.722290287102005,14.26475873090222,9.669752473007698,0.49444509648260015,-1.5413521172669373,-3.260600015120111
2.010281267733805,-18.35128670996243,-30.90230323825168,14.634598160210928,40.06296701002676,9.139613448107426,-30.773666303178437,-14.504449262140392,-25.070773634680755,-12.042162242358083,-27.120446484935705,31.624671841693537,-26.982599132876427,22.022173693236738,2.4400486671322152,6.444841665337957,-6.950266415193553,-0.611493111345992
-3.5072276271308445,-7.1898025697331285,-33.94653258865311,3.009550678603727,41.85081579894725,11.627116603084552,-38.167589324610326,-18.3495693766873,-38.04272678822054,-7.057021176956172,-17.50498770727416,20.97072356553005,-22.563403824137843,21.283599782849983,0.39111118907697673,-2.1505334470424002,-5.521895940485377,10.537802429569041
-2.185277495929707,-1.009477920203349,-35.04112459113043,-4.02253738853347,41.40038156181268,8.44983448954801,-39.40868497056076,-15.266337651656976,-38.914893914651906,2.324725580011791,-25.178647384597753,19.510398323437634,-17.95697364949666,26.01397836873568,-5.070959348857622,-7.810851941228518,-0.8696212646529862,-3.406980999135289
-2.422361791346825,-1.0798966691113434,-29.498516988417748,0.8627392498552862,37.93041552338104,-1.5641444325829905,-41.62602515769004,-9.942319510797418,-32.863093892332195,1.6497319575669414,-19.76994992079265,18.84527565653822,-12.772685889875502,19.416061034267365,-9.551586057496117,-12.293862664577853,10.22921750750305,-5.042936350360986
-2.3629127327848867,-11.209743441747735,-33.23692778949812,12.684908823847927,37.495704401491814,-4.352124003584954,-35.44452257078835,-3.8423721769191665,-24.574850436735275,-0.7810958150718058,-27.451248788638445,18.682519900267888,-12.284061748238345,26.490110593334073,-14.808632859385977,-5.540730335505808,16.25096019057988,-13.218017378603156
-1.3232569754045513,-17.33633586189697,-34.73274713563001,11.619521161172457,36.97120097247024,-0.10943790374866502,-32.2901872925298,-6.732258054764586,-22.44867497802883,-7.40920410539328,-24.58944750270355,12.674507774375964,-15.12389109081303,30.829506590011384,-12.541219648208768,-5.325078129560531,19.24637118264888,-4.885009855182509
-4.283871729803511,-12.72132147894062,-28.712457669716425,8.799627715451964,41.14212855212578,0.8121754149422236,-31.772441502138875,-2.4984357311207788,-24.23837891916987,-0.36323054286233925,-25.149677032822055,12.833263331859232,-16.01864917303977,30.871603721786393,-3.4329816402425255,-3.7365461746966275,15.602064683507038,4.9167792021813845
-9.682167318491242,-10.450868478951763,-21.914441233030285,17.31143264975918,42.48882875209721,-4.517034063874181,-33.207732724741504,9.542715896219395,-33.36191630366244,-0.05364813199130819,-12.139562221098423,20.819082276055838,-24.343467271140256,29.643669233946454,3.0432460792239144,5.963329817667202,10.786823484191538,18.726433351387808
-8.728883069458513,-7.888248250156433,-19.123922060673266,20.748500419024385,44.42930360648041,-4.866443869337795,-23.412316234369214,9.273721859781961,-43.373803203718076,5.4337808377908505,-2.160988013297512,25.108457417982898,-27.402822398493598,27.340894784229135,19.094643450645343,6.391549526168122,2.749783175306117,35.95798575901959
-3.3771115773751945,-2.6897047444064563,-19.07134173716184,21.06404834803919,49.111998036913675,-1.3103066393580285,-23.67562798806613,4.116592440172415,-45.48476378735909,13.852920455518436,-2.6360092819153174,30.19374290287785,-31.4467881766245,18.20134888002254,31.635032404300862,9.853062741953892,0.28008732808881653,48.0175321375586
2.2715823515562823,-1.8866242910194937,-19.31524625002364,24.117601004362708,46.5757906889495,-2.637836353018235,-22.864732564536755,6.766858364398519,-48.77688261097195,23.445922179465796,-6.533332865474122,37.051606111886485,-40.38164750262194,5.349953507238034,38.90652938472486,23.96524474644008,-0.5286278419582402,59.10432934354046
7.631310549296343,-8.311109700003847,-23.17598559089716,32.155344125295315,49.41849168295262,-5.040398401310409,-24.495353850666366,14.001841147166601,-50.417993969504984,28.25565328204425,-10.434999502678469,40.89689957386431,-41.02357381194534,-0.6663818388402802,38.46764328988054,37.1068929390327,-1.8248878963001989,60.91744063754585
5.670771912847609,-9.072366909343057,-22.547951546706887,29.94272544071179,48.26491312259922,-5.685935486739868,-31.887898485396477,14.395614514906057,-61.248009915245206,30.6258875622528,-5.942502709857878,40.55780396039824,-41.96641168461901,-15.66833810510309,44.478695458117976,38.24274799695543,-0.8743324503412158,67.91017984031944
2.640115833633186,0.4194909561009701,-18.017072228357364,33.39800919035062,42.52905726085502,-8.773747533005412,-26.975726199944926,19.374165724955617,-62.809514709836144,34.56057899552735,5.674550187237962,41.01492927884074,-44.284354842638834,-16.9017893502295,47.36917298093254,39.97072046477571,-2.462248132522822,65.14087807664907
-1.9488946087628543,5.222803482689908,-13.880267388343158,37.15006960366851,38.16798850941847,-1.803660853328668,-30.16934447897824,17.023284437526506,-63.40330778876546,24.825105329115036,18.654298268598204,46.467615280351026,-40.65302653658967,-19.99210183658888,46.65072938847534,37.212666599318226,0.7356372218932989,66.96518559019023
-1.4554836237676914,5.142229769870611,-16.387609167394587,29.96831378303617,34.10740760208815,-6.162737565666493,-19.78877290816044,12.128236133513624,-52.48223925392482,16.263426843690844,10.535409490018797,42.95085368200997,-36.7365246930603,-16.93146890680775,34.31536883421553,39.636758027401754,-5.53876573906644,54.33980257972658
1.5812946106121917,1.7402690045959526,-19.093661146834584,22.106848891026658,29.273008936736034,-5.639809835593718,-25.326684974962955,5.470321169449186,-49.773053313987056,12.098231311797234,6.9041623836320305,37.10541097801213,-32.73010909450654,-24.517149960796424,33.01962250714793,28.00447184375548,-5.7579365333827965,51.58146296782209
-4.655101868640461,6.052221945667183,-2.759820685279191,27.335457920330356,27.961656343309535,-3.652915623349702,-28.618775022155738,8.86616672654101,-47.65832176586477,21.216354005499,4.244831338781275,48.16989373372023,-34.59084157004682,-19.89736183625581,31.04449372643404,27.999842104183173,-9.590052506088757,44.822721417896176
-4.63705033393106,8.995895675873637,4.879144036246881,27.48983998534038,26.55993049279952,0.9698208438482334,-30.251021521792246,18.01887502239585,-44.08710259689984,26.234696678395586,13.690354177059877,40.889881105035734,-30.306755224682036,-19.576390457466708,40.20649787917757,24.97425264018964,-7.953005730565742,51.83723757897855
-0.024692947151710193,5.4930654315079614,-1.059621869078061,31.84751629456323,29.95062931517642,-0.9514451971289324,-29.344534851670918,16.424332889189557,-32.12556197646214,26.86026419869649,0.5721910011035387,40.94937368656867,-25.151298719969013,-11.835434540137953,32.184815892992674,20.88089952264524,-6.120376880743844,35.80799159995785
11.623450513337731,5.11416829393621,-5.146161321493594,23.709046268534664,27.68427948642762,6.59913833691491,-34.395566441984755,9.258447576951031,-22.12528146401678,25.436819024560627,-2.1990395078228744,34.18800570166276,-24.98386280790659,-12.592832836085433,35.00714154380634,11.715853058457114,3.3297588206505835,36.09099824293288
18.295511948846567,3.8552163072805614,-10.896116894940672,16.258254879124845,28.549976524795593,11.219021010828833,-28.997641984247586,3.2596522629402163,-17.797111880473317,31.339479531430523,-7.416538653235605,21.387037242661968,-23.651931957182985,-0.36400908978555435,31.973920470365005,6.073028390881058,14.537872757080544,30.22492014419058
19.796206960934473,5.036552887271732,-6.102233152682704,21.40941353096454,28.934277079054954,12.322238780384875,-36.39332766745366,12.100081740096496,-16.211173520701394,28.06406161201217,3.2793137641096255,25.007738371143375,-23.69452537270091,-0.7354171504883844,35.389944044873744,6.003268410356522,26.820295835882057,34.81151346361419
15.734932739640016,3.6776144193183855,-1.4091640880728349,27.834248521200116,28.34877971007712,14.49868763618348,-41.73866903886966,20.642839509388107,-12.093796937673908,29.18496380862793,3.325579876182278,25.4208848450285,-21.009931909381052,0.9414788179628388,31.48538400792683,10.334706900226543,25.137670493031344,29.342590670224013
13.729018163666021,1.5362222611852037,-0.2348892490606822,24.595114148919247,27.867601154328575,14.135013180043408,-44.64305521738396,9.454090540007185,-15.50357412991945,23.47151739416402,6.003682186034494,25.65383987451316,-14.71914194699431,-1.6811986249001176,20.553123746129042,2.66086648271458,17.204891981408938,20.556471394814842
18.563714577168128,1.346776096984347,-3.4582853533054276,16.086626957095035,26.22106683026038,12.012459080950373,-39.54001315220827,-1.0556402000370362,-15.697994916043541,21.080097502925113,4.965839821178511,22.19088986996765,-9.900264239701876,-3.6230281055408824,15.190919057118556,-4.029754152958386,12.690009761031098,12.945345015910977
21.35218657020257,-0.9923652510402022,-2.6807423077847368,7.387004717485375,24.67859796334502,11.74434321375698,-36.00001760702226,-1.511150365845885,-9.161218583721663,17.4207593302868,-3.596624456318743,20.403167438705374,-6.553201410215415,-6.934944478063969,8.953263658651377,3.446655433811916,7.784304601488388,5.532565348945607
21.703818929788213,-0.9889608572252339,0.33994641390111724,7.969060566241964,21.09158956166696,10.596230069944243,-43.20291052210442,-0.11562883264031054,-6.928404632340815,12.591128476617602,-0.9334475219957561,24.294588730516743,-4.189563869482072,-15.230405272441995,4.3791607069426455,3.4100887117961527,3.366628296035784,9.15807076912904
22.548356356062605,-5.28375117701562,-8.751859822072218,6.602163802124494,22.100628063020324,2.7086361687307807,-42.39841834822904,-4.681631517135781,4.379725307406055,0.5363918526497429,-7.259802176603834,17.458594175741815,4.612740896980156,-19.91564923199272,-3.3167197046425834,-3.6511575940120444,-0.7584029555159812,-2.057512516145234
22.420941939226267,-6.5524188078897545,-14.91682064075779,7.485603754275822,20.96718445842137,-1.5667374065559605,-40.715566924995095,-7.201158442547016,16.071802930428106,-6.92689818209638,-17.39984639484107,16.692247891461093,9.306784456745625,-25.87368186892218,-4.36870665054035,-7.580674253014884,-4.688515612288423,-7.0201870449184085
25.42320660632874,-3.4277674548071806,-11.904791144424202,9.935779851600596,18.570028561971736,0.1138754276889482,-26.63075204818894,-3.181886293499276,25.120611218997375,-5.599493929155756,-19.048720732478756,19.554031301434826,10.283308374252606,-28.12407547328499,2.4926450590734888,4.2193876878747645,-9.986302580932515,-8.562103317127722
26.183977097416996,-3.72242733274933,-2.547795226330635,15.124585712312557,14.12774384235874,8.92234755663547,-21.433368602331136,-4.733305602860952,14.631536178394349,0.22162805467160318,-5.663370027752892,25.848546045438653,6.858822037030613,-32.9170408894359,14.044522328916788,8.897113717232635,1.3171909677331648,4.156670283167369
27.437669153203203,-5.287938078478838,-1.6897578703890872,21.098864418746523,15.062159325949231,15.483515605786682,-9.302868708421524,-12.734264821445098,10.972344584330173,0.7706569682573114,0.8808608806768792,28.934975189921833,3.9163288498944056,-18.377358151829654,17.29833591616984,5.671234787575424,4.709802663323702,6.038015620848469
34.06716533471362,-7.83133528732591,-3.8617932626339098,10.475533284229204,15.415989179125017,16.476995757532904,-11.333328842614247,-10.582874959611864,21.36988780406225,-5.612626288597841,-0.7832450450698687,17.875553598694992,7.217754574753293,-16.243904898837286,15.964968114194868,3.0379633442605005,9.761921256797596,8.898439076339393
38.845784936996154,-7.153343826014295,-2.8137529177195475,3.0791058153099975,11.478071287071899,11.707451541698417,-5.8447339808678365,-2.3806859935853657,42.99227140293196,-13.752399671547089,-14.85497694541185,17.572899222707775,11.196729681308511,-9.23137140998713,5.161418164879375,7.8333264180548685,1.727158069393349,-10.11405185301031
38.35549561222731,-11.554878158244984,-0.6940533514984963,10.628500317805358,7.838147302220598,7.717930218014609,-5.23961918932082,-3.0692551252544984,54.159658309722474,-25.21122580630697,-17.603507930781706,25.390139847765624,13.6072502374507,-13.648708691299902,1.6847018128567228,5.603959846589925,-4.648238138199114,-14.475544675415343
37.38151166368878,-20.35233949796288,-0.04174148976240133,16.424229980958405,7.523431053002504,4.117779156890455,6.204910740897425,-6.496065772283366,57.31367426152843,-21.531831127572566,-25.435339971023296,23.065157494101108,15.914308741158266,-2.2495136970346024,-3.742783508659766,1.4280436429798087,2.4522491616253577,-28.9911885924314
38.853546807121475,-21.045541331249026,0.8034190176896558,7.380141678168329,4.967251419141128,12.52824742907619,10.129200720601414,-9.145358438673984,40.44260024107669,-7.792457920880416,-18.330635641684825,11.672059493332142,15.18830156262991,2.9931176042665397,3.9181353491047943,-3.6202133859205894,18.438636178383575,-27.781766437364396
45.31068027672413,-14.415748620772964,6.3337393342720425,-0.9762025201196174,4.954654085872768,13.51542240918499,10.537219057835316,-1.3489341202069074,38.996379527209754,4.776213478388286,-20.215538277180354,12.695413741800202,13.480171874110397,12.72377653019705,-0.33304338503482356,1.7874564133487123,31.59192417145273,-32.03909243541317
41.12764813229761,-3.099722201860904,17.623509967012502,0.04671502264825733,8.266713912405613,18.700552510719604,11.921223562568272,1.9516575327053776,39.40077025079659,4.1622404455735245,-7.554527224029277,19.68966744787184,15.477623766200189,12.293701845559442,3.621053115041331,9.447768791532393,28.04464425359592,-18.2277363593338
33.5310941387476,-4.578198216835672,21.196018290796495,5.663641220703893,9.922695779673486,25.153882550367243,16.33202924005093,-8.032693661440637,44.585688850923106,-3.774953515695758,-1.9299555198671072,16.931775618168025,17.665112975323517,10.199018935370354,9.237233387097655,6.274548610793362,11.312405478706177,-7.832486608996533
33.94694142964218,-10.745583696212194,12.363748343478587,-1.020239330286909,10.215379397715996,25.55105873481935,15.175758019020183,-15.188372329599463,42.8323908027912,-8.097742681138003,-4.904337251548396,4.714555876633369,15.745835020444112,6.537289805933469,9.874647115226743,3.5960518802849766,4.247049709377973,-7.591813143730313
33.878930731579985,-11.054840972232995,10.1700149719718,-5.5516099492107,9.828172472122773,24.384313540338,6.6945741391749,-25.081779612383205,34.82466447737423,0.17834365467417435,-7.102517421019426,-0.4579959288039319,13.919210405808975,3.456891347835204,4.263618695528439,-5.814439909987513,10.364186591338227,-17.701117555485297
32.545760870158446,-1.4043420337517762,17.15397480326773,7.304105509507481,17.647730090534726,21.165334430267453,8.85750575505503,-18.474248881807856,32.47693810996608,6.013971957059141,2.803815927564557,14.304773154709416,22.73241423094443,6.62188150819204,-1.6388555819377295,1.4808812367826434,12.57364300445344,-16.8710987321169
30.14270475460679,-1.1303153143230178,25.503063784687626,12.058203139490566,17.657980993282955,26.92942196513594,10.043286074173093,-17.826966802827,37.84020778913595,5.3074754705691385,9.580071552019003,13.845901552855445,22.654039015514684,6.754686476171949,3.30008004466314,4.094916693346645,12.535532413885715,-5.8831048665214425
30.771341643439445,-8.572573934485623,25.15858953022174,2.265235990304234,10.054036352286289,28.297441463479977,18.357512037731205,-22.358576172009855,49.64510591321267,7.043324551652406,-9.918616657118317,2.8527794218507836,17.1999052353734,8.83576505760825,0.23235448066806086,8.082388907768731,12.007626580963823,-20.382297324908187
28.767473593548264,-9.668396840610907,10.749430789081064,-7.13320012544299,5.285067806101864,28.101442936894216,11.924854502781468,-22.986810194138595,49.53215970604717,2.236965354769219,-23.85580506300696,-5.198012581116203,15.647641222716256,7.103227273898026,-5.763957546224972,5.337644101179894,13.431302083859528,-32.731621720403645
29.599881925255954,0.758083837150572,11.475305851301773,-1.4884848981126666,7.354834082697661,26.63437502628564,11.448759080789223,-15.609945180846864,47.07200930519756,11.005850630684607,-17.387494801105476,-0.34557841906332243,19.364599455691824,4.877355686145034,-6.876364973746082,12.462432840764594,16.02523079454993,-36.974041750509606
25.162919049120767,8.155873620617486,15.910312568192865,-2.578337327101554,11.087264464528264,29.169731041396854,7.456429652422287,-21.61492602401141,42.948439623518674,13.62307524106323,-4.576376114124336,-5.3443708395103755,22.10082969199314,-1.0646329495445754,-6.91364808341665,11.97595047523324,16.17601092471765,-26.46891662658398
18.679232289648866,5.395967432438036,16.730173266876527,2.488019145338237,10.036735930683154,30.43396833362092,9.420671578396917,-22.739653571832207,40.48199358973223,10.088597697320662,-9.153253585632227,1.8760544329984157,18.8759332386714,4.707109352619127,-13.4932391682521,17.061918847758967,6.363931972575896,-29.048787451104396
15.226963186084266,1.8535194191733826,16.27872587229878,4.335394177791841,8.109344426153157,32.57553254260634,0.2513847181518152,-23.476280630677557,33.325096805162744,0.6953499290761336,-5.62942888030914,9.303584801535628,13.889339824683258,-8.862650784738136,-10.599397433970818,23.03268945018751,-2.766375914375107,-16.197678822455703
16.85686058498322,-3.1550623756292424,24.51711130166575,5.209866402354301,11.750285845462301,28.95367280061951,8.757606538182356,-23.922360264150488,29.19288832110115,-0.29867903822720443,-5.528485332870723,20.063051963487524,12.512372834981399,-8.17971974398173,-11.51370403637251,32.720255865414046,-3.109382754909154,-18.482547619311053
20.93209916183941,0.03835166922635391,19.960677349888837,-0.45510681820218224,21.838263798037026,28.064588140552644,4.079494948746593,-34.624822356735415,27.011309378433744,-6.4679558029444575,3.7474573308552728,16.18521045652417,19.237436696982286,-5.158407709192614,-18.77538850880526,24.053884051543456,5.627823393756225,-21.547789698495635
22.081434331829925,0.30079364034490563,17.746423511417124,5.211787499446968,22.357191951440335,25.318340676402425,5.45562814799343,-36.44264248459474,27.073508321740007,-4.140437088385877,4.815354907804547,17.59201284199612,21.173858730026705,-0.9706702671776926,-26.818087632960598,23.30341746127959,6.6480512185991,-27.54195839282123
16.59380066801588,-6.371688238488128,15.237639672289053,14.104901495110301,18.18973966755262,20.812564395550034,4.487443400651939,-30.54760494053387,17.465414666326552,-7.08590416022075,6.073808287207626,23.111334803729108,20.958547508622612,-7.433153420101214,-28.219940698044788,27.636689132670227,6.982599365084923,-29.531436549748108
12.867690212338037,-5.525731758376756,4.133465840992841,10.403623918164755,7.3825340094184,15.035524685608335,12.112609975218675,-31.97889196546106,16.351540530651704,-10.61682490166108,2.4446518652193134,13.69968071902392,14.294712570824846,-12.631668980011518,-23.469363409118476,24.35809652301523,-1.376524041318321,-25.6608088115171
5.33653597879168,10.358326829964959,3.477208272713488,7.487005948577812,6.732487867930928,20.682704989499076,18.760671099005904,-34.68161286647589,13.185021030255204,-10.14332438152432,6.330457120157693,17.286923261273863,9.09278142990262,-7.777073031626078,-13.543059536038069,23.721602227646976,-2.413505241826364,-19.348177060951194
1.0316173949697962,17.549675512578887,14.733778965549238,2.327596602529665,3.25090332652843,20.468663168400706,27.849648759271545,-27.913304455188065,11.57936216062004,-5.079494403066933,12.946034815450453,16.196765902738015,13.067866525074292,-5.857894224970717,-10.648372233468173,27.09431073230242,-0.6206542490858755,-12.253803102669593
-3.9534549450923,9.016976911606402,22.180326583208902,-0.6800686212693172,-0.6209944384280277,10.194095010141396,29.320796061907046,-19.681788783066786,4.698690247673072,-2.9450185349252997,9.498262526139953,15.311845689679412,15.184794546830583,-12.928958102517724,-16.73858111970468,33.69485252587048,1.853506444178712,-19.026427400479676
-6.786688188086352,3.8035113311758337,20.348061398274258,-6.418941251451569,1.8549606840508517,-2.2307430610849934,21.12330000241766,-14.576866238587256,1.2347107930968768,-3.837591375876811,9.561609122803056,3.987214750001968,16.420294535273424,-20.298767818008358,-19.118303883550208,29.16742855300632,-1.1435111450671211,-16.228270965589594
-4.929064383425519,4.5460597917075365,15.682436841733413,-5.318628935758998,1.3034082688879032,-8.016673986295668,20.83555248801326,-12.500765039887334,-0.08196173140826524,-1.8001268649677122,5.030526580255643,6.832365330489196,8.27829500703308,-17.225010286656026,-15.73685089670478,26.305087906970684,-12.443829881101784,-7.375090273710335
-9.025362054113671,10.65869894540087,15.898455798792952,-10.367678899390146,6.708643842714412,-6.675427528460226,12.344024172767787,-7.984537172883551,-1.7902650399663944,-2.203835975360283,6.6474120942667465,4.510802711861906,6.188871043197713,-16.500884036514556,-8.059210103433236,22.763926410813166,-9.195584919301885,5.482225127351591
-12.825572107626169,3.000535872753872,8.788940973694224,-7.991734601788256,8.988282031254595,-10.023607501604225,6.684036520027119,-6.594558857209313,-5.257245556706,-8.271458525018934,-1.017610161548122,5.518484380418265,4.195052828088993,-11.876324446382307,-14.24984186256401,20.985265673250055,-18.059383515606527,1.3471849380108871
-2.9506717249418735,-9.24857665113877,2.947812506189255,-13.327816603306257,8.239766277983456,-15.424470857156361,7.664237233429869,-17.315226940697983,-6.283460137190426,-17.366269002021202,0.3951633718312557,0.6753132942938436,4.1524899161659015,-20.929751608868937,-10.578034790604036,10.519602196790544,-23.0193982397742,10.981901975352084
3.997434509818902,-14.174368072333662,5.113492240809904,-14.36409515569963,10.224690420270338,-18.190460567747124,14.50335920354852,-16.61091065589943,1.2836875182864382,-14.156034706585185,-5.3254024951915175,-1.2297867938034912,4.791784303410498,-17.977202800679095,-8.567520400647318,11.679617298012682,-21.43890972217814,7.725738705723563
4.112347171684018,-14.21825458166175,12.649257719765277,-10.221724288697857,1.3684174366015505,-22.71618789164232,18.607515048541497,-8.387804195376374,9.436419712918873,-11.238635602528099,-4.018884545007017,-1.857273544183677,9.433451866408241,-24.894030761033374,-4.507421382305437,8.839940674979399,-15.173452211897139,7.0085444549799405
-1.6294470954469666,-12.016966795220297,13.152611207573315,-8.908713741477449,-12.665112974126785,-28.80634864513518,25.738504093311125,-3.68111689562377,15.63579049200655,-9.493021777234754,-16.681644822774203,1.1363596835411016,10.655657129787347,-27.32456260577419,-13.534802844137845,10.789633898474587,-24.828843551939656,-6.794991945351219
-0.4348759081078768,-19.777692810716538,6.2329557288870205,-14.331449481479968,-23.379884510433513,-31.871038578781437,17.634320465674847,-0.5375789039579999,12.655280639719585,-19.75923171170054,-12.551441950571768,-8.655669448754821,12.950808949066953,-37.085395733903795,-15.82525743312073,1.805662690384029,-25.111761126690173,-12.981501450775273
-2.362778771442919,-19.5313779769317,2.632675396133564,-24.341538861489518,-27.162765514122974,-34.644682095102404,28.963452300500528,-2.179780981846921,3.913062853743149,-19.868986581488358,-15.066079217498254,-12.58101726837753,4.893104543534235,-29.56678636173914,-12.746105852542858,2.3960113801005747,-30.57323762775588,-15.945653339252656
-2.628019264399203,-21.434395765956378,6.16045347477096,-22.337244930327987,-25.185851007445642,-29.217007970077127,35.79974248050384,-3.041117803719736,3.0813707598622937,-22.908450578915787,-12.897203355063814,-7.51492331168593,3.0845125332798244,-24.88623154763857,-3.1255659487671172,3.2830506623117657,-32.61941859335193,-4.163904341875952
-8.262047976644414,-23.631216589286545,14.081903336474706,-16.42424019462952,-23.89475117526551,-36.38911854282407,33.16263429115887,6.253667156678127,12.015849617889254,-21.455661262570747,-20.98639216878737,-3.809397610507748,3.911849287120519,-19.625708810876255,-12.354759215769835,7.201050469197504,-35.1566374936603,-13.08608328330301
-11.354681590075678,-24.07099437209962,19.561011956723796,-7.676841043927979,-19.871641430168097,-39.07091086166878,26.325632539076697,10.470079106332047,13.724199010694498,-17.1708247924638,-20.876275361357663,0.7813960938564719,4.054904329778052,-22.086120304024096,-16.31233117257527,12.196706500317674,-32.42310866042546,-12.731332175337547
-3.116817339352579,-29.003789967525105,15.566449516374036,-12.208656996393216,-16.24176254774214,-40.68040521527667,33.453062533224895,6.971470786532816,14.359001084614029,-16.792348561943754,-17.156708384424853,-9.172758925033424,2.732568344147981,-22.892313019016573,-11.580366470942192,15.242476702474166,-31.35254972683767,-10.13107561835192
-0.34568047146111525,-25.831719425330064,3.2701350523046937,-12.050747386840719,-14.17719707141281,-41.60822969506641,31.400024312229256,10.504271601291094,14.604002671613252,-19.050704001103835,-19.984037009214084,-10.527273892513737,2.288779592049621,-28.001394946991077,-9.877897657724446,21.709382159631527,-32.23794903532536,-15.344127231118364
-3.041364908822114,-19.144660135888323,3.9614807561359413,-5.25004203861769,-20.611830584710077,-46.24897742943307,34.52218894760574,9.837950858867842,13.189793919845176,-17.402843286803595,-20.27603139090088,1.0144944307759651,2.1377440062854474,-35.36253518300208,-10.326106928397719,21.05022989736929,-30.7823781429204,-18.116489758351715
-4.953869068730192,-15.387985666652984,7.58176292547882,-2.060689381213091,-19.237002695245877,-51.08696223991602,33.93268419543608,13.664155502137312,9.432909525812414,-11.458154928966822,-17.446684331907377,4.651148544053331,4.818715060581604,-36.47948777161186,-12.339147781001987,21.27279525436824,-31.282786709479215,-19.62012061941933
-6.766890667266772,-17.58904783811352,4.853518475891931,1.0329024416823953,-17.767853070939854,-53.192441995840205,23.967342099102147,15.049292565290212,11.146105677129963,-12.935585912862049,-17.355398807047735,0.6753614550830456,8.866978721414277,-44.53602087656885,-14.647567572843599,18.372949325534968,-28.660978288519722,-14.190934509208832
-8.382865134247183,-18.8141081824701,8.862905519184139,5.300196203088856,-19.23194565216623,-58.913157459405085,29.528866260345218,16.141937298664672,9.73563631136815,-13.827218411113487,-13.947332889614707,5.0050433950251705,5.102859305475478,-46.83659735021066,-14.321730079683816,23.58116857178214,-35.71011980917072,-15.794050986218132
-11.364409003678471,-15.15681743407934,13.164532852777088,4.686323118680582,-22.066926208960542,-61.60836751775301,23.37072598059283,17.91877032670692,1.8812714235764894,-14.426041203949566,-5.171611470097504,9.046010784280112,1.046154498187235,-57.34623895359101,-10.287494104008603,24.201781139923266,-42.07849070788821,-2.944829048379397
-15.418641157241954,-6.421819766172117,16.19589500494346,7.199127950568157,-27.34719493256523,-58.934269183101286,28.93075667239652,21.258812665272625,-5.385500447713678,-8.384315441280458,5.944438522842152,9.3799393983595,-5.2561390185425285,-47.548846373062666,-7.525496267119646,24.23858688065231,-35.558870275879244,2.0907055969273003
-21.32691491894323,-10.48044065052347,9.265470210313289,6.979055341724386,-33.70570377397597,-49.91426539662374,26.97036033784881,14.540892603357896,-17.24041019238102,-12.108554430671223,12.271865441939285,1.514269163794257,-15.854682527219811,-41.9564691213813,5.780760214558718,9.921675204574377,-28.065496540827613,13.570522907281116
-32.214368570100845,-15.223078771401967,9.463378851785835,22.483326225611066,-37.82224497554508,-48.12275996794561,27.841233328349418,21.20296503395507,-17.569803260703488,-11.14542431000138,4.533247641371627,8.691237665338047,-24.20625641677947,-28.65481562656599,6.19333006464403,9.766935397440342,-22.430434632346426,5.908235695938288
-37.33874038319148,-17.426986665671688,12.785668211687609,21.38713567646782,-41.650123678272486,-46.137740197624794,18.066582551539266,17.02600544366494,-18.190140694299075,-15.84665593804824,8.119661426923004,5.324212044827686,-26.0137693539466,-32.25358518182647,6.017003055978481,-0.44492440097326025,-19.337276351881222,6.545610483647364
-38.848589321850355,-24.807083333187556,7.220449670723501,19.315628209382634,-40.69722894930328,-45.03341444357289,14.15054035645037,11.385249599429574,-18.22237923203614,-19.571532129054113,-2.2621839061825018,2.9365004924525167,-26.15995785221162,-25.21323997453773,4.17746074922241,-12.999116359544018,-23.473577827853017,-4.439589382991167
-42.896440596694376,-21.738087518772648,-5.08379425787405,11.581137446506467,-36.819197592327505,-40.90344403707151,-2.4618903251679853,13.265299875256462,-22.74459968380141,-21.44114112196772,-0.7329231878478968,-13.218520933105626,-24.156383014786364,-21.791751182399796,0.47930658249149616,-21.450404464690628,-21.36255253592184,-1.2657773967179047
-48.896434166236716,-21.013120060525257,-2.740007416635464,15.468987624515702,-26.012196490927955,-44.685464596281335,-6.6726973491608454,18.369303452474625,-21.11198863090749,-21.162516373418306,1.3792097227691986,-16.2852787372128,-15.022350224745054,-12.711570909599534,-12.304211049523323,-18.96292280010239,-23.74653055592427,-3.757530936200065
-45.520357316040126,-25.46421209452676,12.103349840915172,25.9985373429448,-19.409336607432078,-36.75023693673133,-12.642280656837617,18.201122054486937,-17.719026585321938,-24.399812289721584,17.84402006783308,-8.607863419383705,-11.355558450553515,-7.44543376150186,-11.907203952783894,-19.89253598174964,-22.61755295225978,3.5150175522571807
-41.4598327366814,-22.59112943132969,23.528074690237105,27.837423896085784,-9.491094771213206,-28.91431214390573,-18.80814449641929,16.178858974801294,-10.514785179010023,-20.215366283657467,19.75488045696916,-1.710192575876544,-6.31981677222149,-1.7939872174661318,-8.779124572030424,-24.14176387509371,-13.776309792313326,0.7272921574936753
-44.13693111750223,-12.882117285276893,21.573085370838086,16.395635182009787,-8.5624631756053,-25.767566571464297,-20.09211486135152,8.493941918454546,-8.874293633434636,-10.171705369402936,10.432217477666072,-10.436546324645732,-9.192461834258124,-1.616622586541375,-6.5333812057408425,-28.585737063501057,-8.355753533921948,-2.5503025417489216
-46.6180339218418,-8.837322966964832,15.613531614617283,5.442813477087187,-12.228954452432596,-22.134100698718917,-26.455310040317492,4.619248343327255,-6.059056068050513,-9.796412302704608,1.692680767931682,-20.236224194163913,-8.742705338684857,-0.2725371391625444,-13.861582276318957,-33.322292094050276,-9.676214667738146,-7.587370431236895
-47.04772363819947,-5.183185238958721,17.368347894668176,10.115808700090701,-13.459316141504775,-20.455316983196013,-34.186764943811255,16.469096219931878,-1.5806740224757228,-9.90966052787601,4.669315372514208,-17.92573310444613,-10.829864045671048,-0.20309478253836488,-13.771348161728957,-26.8279948587168,-11.975851154024912,-1.8837733635975784
-39.07832521988912,-7.974440978451925,14.630321365007186,9.222790770511901,-17.820138044300187,-16.434232173828946,-51.88038991332344,15.722811508407117,-2.665712590880455,-14.22244417629933,0.5142396327987875,-6.825736928324401,-15.649106370315781,-4.4356027737029855,-23.255190397965926,-27.07204908113598,-21.504720353885595,-5.166426781588755
-30.229561214172485,-0.706889452612991,11.30576535852221,-1.6309397014119256,-17.108262281144928,-13.29350748981728,-50.82483866930718,11.657946969212468,3.967386444569642,-19.902687826390665,-2.7645501194676054,-2.561773508269077,-11.87198802560511,-2.5205972449264777,-34.98884079659203,-20.187235404008838,-27.03214157116198,-15.872858140751932
-25.091420450760356,8.31860360899768,3.586030837600841,-12.484394861882453,-21.870810655215546,-8.298680604353006,-39.71167946391303,1.9307810558129326,3.084119029753298,-18.454166215104184,-1.8466296934661335,-8.454503987108854,-7.89692892060531,-2.1729511144638245,-33.44477855192021,-24.43573108075529,-25.14005081550568,-13.983281393391271
-21.32019069683239,7.090177778472128,-1.8881538925956747,-7.419465208243928,-29.17813030809199,-7.699800012344767,-27.23248056373617,8.123735250598296,12.458295091710749,-21.69346316831014,-4.8375311751777295,-9.464932767303388,-6.360543040607374,0.5137365495404396,-31.51388278254547,-18.625986360038784,-32.13724517074682,-13.85343442540843
-11.884586687897055,2.053284835111807,-6.776969241295424,-3.526357847365711,-36.29587724481615,-3.8795139672464565,-33.11413485106605,16.857756688806745,9.921706621083798,-27.960393570004005,2.1302041335678243,-4.226146125973698,-2.868087884117944,-6.081711336332198,-35.446303817348785,-12.03566633660023,-29.664021614255258,-4.643357595743668
-10.06613161660188,11.176989110399862,-3.463111056687488,-3.539592472453098,-43.51709070870784,-2.2089491507007253,-29.035927014109504,22.175777308389044,6.7050904837821435,-21.532056983091774,0.7946376111842737,8.14048285290404,-4.15780418938757,-3.599543073329066,-39.67560297107053,-5.153239331419917,-29.146285591230054,-12.81834745211817
-10.689034315218116,23.2306897462118,2.291613712223471,-0.9162037958293192,-48.40038643040525,5.905825472823594,-18.80653818269261,20.855142255277563,0.46475538330722266,-15.494585636778499,12.15224129053907,16.794654310442347,-2.9052190406648575,-6.004716496928204,-29.65082701866548,-1.8851943288171746,-28.923803182714025,0.19635490510751907
-10.432999225426755,24.737656871059173,0.9167455990102358,4.148389121661775,-56.80528118868741,10.60142879613801,-2.035366584839805,19.927255809298913,2.2361181099446164,-9.555000757934936,4.854937541568358,21.83373747284973,-6.4345215321185645,-3.433698505568543,-18.360503025109608,-0.08324010537367732,-27.04336515921726,-6.127260653441406
-2.9503394148709177,28.295776141114317,-4.8533002079712375,8.040746088194894,-62.677040536228205,21.64368608975343,3.2108767474170445,20.271080980156526,14.070081021184128,-12.99078157952799,2.9265863780889507,24.526996786846357,-10.741603954905859,-4.284951170017436,-3.4608904495119575,0.9360488554527652,-23.211941885300092,7.078538926251261
8.731490399586036,24.920571457364012,-9.64735009028604,9.491212502042133,-69.72669705573566,28.094982192065196,6.50262132641657,26.867202165791415,20.82978184336957,-5.489111624322577,-5.839974857609264,23.99522890739383,-14.556776442263676,-1.2340382755543793,2.938408081568465,4.590515264704573,-20.456865009859136,4.949893309967997
9.377819360762544,25.84271765512217,-4.676210029643384,13.675544491096492,-75.02454997421081,25.267797657948222,3.835870871610357,41.8641255509767,18.901969247397062,-5.995585584941697,7.266683150806749,24.046804664202142,-13.582960367991054,-8.636539906570412,5.8178968042020145,12.344847576599985,-19.75465187212109,12.68245273141437
0.7464247452583841,27.546569450017884,-3.807282177158088,13.46462286144682,-82.67224875370786,21.658408183057993,6.245921171651601,46.90222809594334,15.90402960579063,-3.5725293899068653,5.624960359079747,19.993874304728948,-11.726328531294568,-7.546744860679226,-3.4163436229466875,14.823725711780224,-12.511359629742351,1.760110697023471
1.6851896768716088,23.391432435926543,-4.794441971626519,14.034203669772538,-85.05250697112567,25.6654318244792,2.795076574006335,48.817579881752636,16.718930133881525,-2.419218493680564,6.422670268611839,13.594001902259878,-8.889087710962016,-2.9450864833769366,-7.088298178649616,11.148053682014368,-11.715404486445447,2.456720593762011
10.631530887656883,19.822747875093786,-15.352654711259632,11.868504153510383,-87.63416831639043,26.058280857856666,8.620258136576805,45.46173503036241,18.41701638749937,-1.0707793143454793,-4.7934827575134245,14.417373889490534,-10.832910493654266,-0.007311928789704325,-7.444128601410348,10.790456732171673,-10.23770677995103,0.80717981186727
10.98357440098428,28.754788899896,-18.00118905968885,9.799494775098294,-83.87416739726147,16.48925444248524,13.858005539511542,51.483375079535534,10.256012251683796,3.5001855924655274,9.379464262623236,8.40100690964784,-9.842702803222638,2.243270833720551,-6.339363477622047,11.895263111305452,-3.4882868246047245,5.698297190530367
2.350632352548635,29.09351083605181,-7.564189217114665,16.22563736655083,-79.24133385228801,18.736080669807627,9.13314726725268,52.8198020666357,-3.7600420949706574,4.945930549463171,30.679560976234832,8.240141907441073,-8.164461613166946,0.3887569682058434,-2.602139295908991,11.825540092187127,-1.037536120829433,17.6183161445041
-3.3531066371497253,21.229570143374072,-7.3818597436759905,21.283396604024894,-76.37241590698258,21.95880209742608,10.656839831836903,42.34201367838974,3.0294867661666007,2.2898854301125553,21.215649747729437,5.24297842269763,-7.946527793647188,-0.5901913862461861,-1.9942899806877143,9.116248861158773,1.313896189839884,4.633110561915672
0.1223983310649821,17.858496791528808,-4.270410589972446,15.011579745024552,-69.50558926129843,22.153502670129996,4.952286864083535,39.38625128846073,10.507172252215856,4.418911616902058,15.265641332504169,-1.4696609238419969,-5.282464046376578,-2.451294953537282,-0.31655788868959434,5.036768449885349,2.4918438618677,10.005014410777548
4.476186062620805,15.074003133198593,-13.269138774408962,10.007932415328124,-66.64876419390869,18.831944464493013,10.867404113759498,35.45629646048823,12.130011182896745,5.278235918668241,6.286509483478969,-7.405773748169956,-5.543320191634604,-4.315514383694591,0.28256354651813,8.08315187354766,-4.242007551044644,9.417205631465098
6.094868057037299,11.704216410704202,-19.43641522759051,7.737218339323082,-63.309653574055865,21.174005231425127,3.0111511946981393,32.60296285257161,4.480045585056718,4.770206873734757,13.516869677143257,-16.667234556323955,-8.33834127370866,-5.889755794127765,4.197651471108355,3.508911301270074,5.429189460033541,12.537755858701573
0.9744260014693253,15.17114312753124,-7.830610984096401,10.250148238098516,-55.67956790497726,27.324237405106764,5.993250834541376,31.509851958955043,2.3036546749936626,12.074657828999221,21.429180182274862,-17.24238630312707,-3.9016312640194735,7.963052055138704,-1.0715040641865912,6.1578555665947174,15.391978441552347,5.889852419962359
3.763471079145109,20.494254885131852,-1.7919312885228447,10.515263639715426,-46.88351083197051,35.134219441338644,5.94627632622208,19.969739820142863,3.5500838913893666,25.726727867203024,19.574099994354277,-15.869853437337827,3.079358255397643,8.824629040717731,-1.4622057839972804,3.724943243514895,25.353457161937612,9.981576298450394
2.352394786930878,21.32581298855284,-3.859482785657452,11.364538552363772,-48.83567635761925,37.67029969941986,10.096873031317939,18.68605720160874,10.856147729883684,26.194873473905396,11.662658629409567,-17.530416290867947,0.2998698108874597,16.226646068225584,-3.322222236629127,4.413259932141837,31.212071709779877,-6.632909205309508
4.749084184843561,15.907990568391558,-3.4862349676323676,7.231382146765026,-45.71545419466097,40.499016381116164,7.409689124083979,23.94779619204577,7.717741154321544,21.975321803674266,18.886619253313455,-24.1774602787994,6.412647300658204,16.887773860692448,1.8446563545530061,0.9959699865783174,37.65546484116546,-1.960820149749165
0.9924032254267701,9.221342841256709,-1.160481965646579,4.756422016023267,-36.25323142205845,33.75698379251271,5.404343645293514,25.207903493423707,3.607715547254097,30.158180317492857,17.808155921826447,-37.76436566936965,9.99184831663303,29.16779133560616,-7.641600154626488,-3.4020399885456047,51.519749524818295,-12.916826582595364
-1.7886785522175206,9.566786186207054,-0.0072768762311312685,3.548929460854927,-30.89831820721089,31.506961569424117,-1.485681279646275,23.638251117314425,1.6511667317851284,29.356405966086704,19.4626230651118,-39.150435544225175,12.795422935244824,19.472559934683098,-4.143861398248687,-5.362908271903629,47.413984294720485,2.1988822892484627
8.515354185103742,14.01459484873575,-3.6399614569795657,-2.836603014804153,-19.787209235976476,35.21385982291365,5.489874057024422,17.96926413965607,12.004545379833415,31.77721734832454,8.51778335697219,-36.24616152292764,17.06960741000937,19.736284903700238,-3.385031934765353,5.464928404566263,40.96347824425029,1.491091714342505
15.20498446188834,11.627106352787367,-4.0506063285379,-3.6579194554565877,-11.025418050691783,39.89717673324925,-2.771022991657272,21.18939434444009,14.64805802971562,26.67826311280369,13.880353814697798,-36.08310992638752,16.369096511175215,18.337819454866025,2.1545274842361515,10.42868658495432,43.30128402106436,4.393647747128702
2.3619582420606626,12.756043532381899,4.620247686203104,3.233356245056582,-4.124571942303696,33.4473943417113,-8.20171624617107,32.419691148597714,12.218504513212212,23.63000078769477,21.09701287742909,-33.973912472483775,16.846430791497696,19.574228413539295,2.0254335311993614,15.094704565487897,38.997548465184686,3.0938869259447888
-6.5759082287996815,17.49906445933675,11.239613081031724,-1.4014435188918055,3.0638882853828875,26.802220233954618,-0.8411415928861734,28.319920559540208,7.059709036908295,21.167562150792875,29.191205153141382,-36.65715054801384,17.52513299697158,15.82833218520754,9.216162076827445,14.775260226873538,40.16190056496329,8.529431862643795
1.672797314956055,22.047515547693703,5.455764391735136,-4.476272892785936,7.707981769238572,28.45791735187683,5.6385923597424945,13.186985961379037,12.746133535028136,27.689509579753057,18.24077168230105,-33.976610435329874,17.52638075947449,14.6199006846436,15.71877638246595,7.126419615539979,38.98178967779693,12.594645793828466
10.506219640653232,26.889681724012277,0.3548339290846707,-7.2607722529836,11.467988162243216,26.98856850407725,6.8428627333518826,7.431314879024821,15.80104355396711,31.08627883491813,12.75782328204778,-29.15518263001134,14.115851720035337,19.07410522275213,7.665876778174173,11.874900557621162,40.926117114420514,5.4260525715893895
8.400706977003379,21.67383670836721,-0.449846625993783,-7.215928445949502,11.02364662235653,24.835654455800366,2.2833566973377644,13.88493873573372,8.021220259671532,27.939843332313874,15.769765951170172,-29.322060929571443,14.715625495659065,14.151777065325312,10.253161084911746,12.907032865216488,38.27998850709685,12.609935644206239
3.2664988051144537,6.009341670992697,4.018295610317715,-1.9003842997206495,8.328218310840697,24.05002387667409,9.050155114191739,18.094466182792736,4.445984647129148,22.937767680089447,16.241289123617697,-32.231289663973484,16.493715923626695,16.747828046209786,11.078098566084702,15.203220948460984,35.145095239655504,11.684970227174695
-1.5760782239006614,-0.5722652618849171,6.044294859767568,-0.2010786469386563,8.460015894940327,19.45585154480011,12.88520475688892,15.372277230261709,1.7550002675846912,16.861305624729233,23.742863424452977,-38.66429658956319,19.157234956444395,18.952103472141612,12.77745182525943,5.286559172927276,40.1153839001401,12.90517438992197
1.8808750173003563,5.151709415790968,2.893730325599527,-7.098638771339379,3.801849433244989,9.588305261535899,19.745605130574045,21.53887477753893,6.589017897106478,16.546489534227305,12.1998823600942,-32.50771380391434,17.72571983177405,20.66706725825091,9.101130437320755,7.180717075428607,29.36243047975539,7.774279996827271
8.070832720216334,10.192772347659062,-4.945113105192167,-11.069531838849098,2.068797585312524,4.017876385910267,11.466994479889534,28.879243929501513,5.1783183830250845,13.692400781947873,13.155804164900896,-29.777563205875776,16.300874375846615,11.052831234548812,13.916539737272693,5.1626670328251025,23.199108621238217,15.042528309292408
7.130329448141281,4.394502660923276,-17.08160800122985,-10.453654644994845,-4.356323000668148,1.8656770318264702,17.053700123429657,24.30719178516419,6.7027492962418656,6.150557095044681,1.8055690768282968,-30.66930600510929,12.929619229571568,8.078539838856152,13.063314901815897,4.798771969386982,10.980787439068754,5.705525558252833
1.5984336950648697,5.725906682374587,-13.88655181396745,-6.130003015770672,-4.2427488471093895,7.331020780382198,16.192891232834313,16.12356836326882,1.8848431440777347,-0.02427490108621999,15.845069107318857,-30.397851802441668,13.959779600301621,5.98250586231786,19.627601840561272,-4.165155773927211,9.99294881655476,19.705242411694954
8.174587204380655,9.792366308005409,-6.492929804728011,-7.083162908649402,-6.770181390473219,6.741853779003197,31.736458783975515,16.242558029641142,10.939767811338076,3.761771393211823,17.480761248543903,-27.791439653916175,17.828900353623105,13.065755826201281,18.1794875522146,-1.123454530015464,9.981591005148726,21.884847273927708
18.362535690381836,16.105571123240868,-3.299310155215408,-13.801494504008202,3.1008000541305165,0.09820483916414524,27.160388454621916,16.94913748162366,4.765530302343132,13.504712836046021,25.75590538738804,-26.6588463712076,20.728394899546956,10.187490368158933,24.05124836763114,-7.6586028059204585,12.997586602728601,34.60791740117639
20.833951329027553,18.70837537422631,-7.528400444524397,-10.46451291093877,7.694275583213383,-12.209267188600947,19.847739233510843,21.465948553284893,0.8428775926354035,24.419303107692414,20.45534803762788,-24.16811538999311,15.919940973078726,8.383150871457953,20.15279206256451,-7.657187725817106,16.013604813162605,28.772400917547888
10.315287111764576,10.960027261582866,-12.734791585124006,-7.131031826148584,12.088580894606366,-12.797457556607899,8.235969329973472,13.777056658148567,-1.5117850464768097,10.528565030148723,18.180901940805168,-25.78819096222901,12.09513574555012,7.359879855391791,13.320173904630916,-11.471040179576656,14.146816877714077,25.17935109521655
3.310673012090284,1.9426693136118036,-14.133255662932081,-4.191746044496462,10.717359951233249,-10.260221247041546,13.516791271543736,4.429431063755178,-3.1773698248150595,-4.924978781589465,19.7138241685618,-24.683134943709284,5.543039854014436,9.266262286412914,10.97539675133163,-7.381337852392754,-2.6614670801134395,23.73106477578714
9.097567171684465,-0.04281966437041973,-12.114424568129115,-12.584383590898168,15.885624894346748,-13.289071802661194,14.010170593164752,-5.405103326497667,-3.079636112341717,-5.241875524797006,18.02275085573251,-25.34529987013149,7.396686872279274,8.535920557225149,6.575407764552175,-11.306394835828264,-7.067023341823047,28.62677935428429
9.902234662160593,4.417583013429644,-8.8267690784619,-17.074395353140396,15.679269838560046,-16.2198357560807,4.3449164270940726,-5.7655261520474,-6.6874137934802675,10.163799273327193,14.572539849548296,-29.630272085230814,10.331793898447255,17.083211398036397,-4.176716728017515,-25.19946421106419,0.14894178692135007,19.748954952481668
5.822307960812977,11.905823838140487,-4.758577945149172,-15.31805106440839,16.250872149561765,-17.294650008244982,2.7830120817379607,1.0043066914358647,-1.6958259353414107,17.854164821117596,11.609309288729232,-30.116145384932267,14.641378148918339,17.329852827260076,-2.237699362348494,-26.989990699462975,5.509714932828685,16.62909424941612
-0.5054782376116989,7.870865231554297,-2.0583210507641976,-8.87792713997212,19.260754272741437,-13.486101576550833,11.765888096179886,-1.2092028935036296,2.5199842326070776,11.579101418359548,12.258095397396929,-29.92804224497938,15.442592979101375,19.334702092772346,7.314276556103106,-25.76023372923303,5.402013641515335,17.411654939364432
-0.38960836081078565,5.691781639969054,-3.3627565225847444,-12.695707403048708,22.16995675775729,-15.048230854274276,15.082347848535772,-11.331891426104953,6.3506456789818575,8.135714883481665,2.4561706163998807,-27.69882182516018,17.325388885510545,16.554799352196934,1.2366892028881997,-24.244695114804088,3.3415696681221654,4.908829669829612
2.9471898717087415,2.5364610312990656,-3.984311517762978,-12.904039280162966,17.263660665075676,-18.270022093949873,11.853461198357131,-23.894997650294457,-0.7508813034997637,6.254427976356274,1.8327262753334743,-18.740972842929345,10.816998116452758,0.005739959822824048,3.55336412983833,-27.42400008704663,-8.777157114295449,12.519520688498423
1.2039872750767797,5.338563813484985,-7.145689682150802,-16.241350249510937,17.237515294353223,-27.15542170374144,2.8604809433813374,-16.827944863338217,-3.6476525102594515,12.57593929897924,0.5243147843333524,-26.297090415974125,10.370795573382653,-3.6518069090333594,-1.2632567156846086,-29.34110227812969,-14.156983887211307,10.45807263779101
-1.7129267793652037,4.039302079225852,-14.995359055553626,-17.824793535989624,14.669675842989854,-25.395566816843832,-12.677862526532149,-11.90848191024968,-4.097514489332038,11.572639358613946,-2.933947129235964,-35.03495503154948,9.541396077617229,-13.070364860514974,0.9472227709131298,-32.730489398769585,-9.868127706285748,12.494182585483937
-4.9246518085280595,2.9355742343643882,-12.298709467788534,-20.0958496420185,14.443172952407423,-28.12738755869419,-9.956509390594793,-10.406232284115227,-1.7098451781779005,5.002337611842781,-7.56550050595623,-30.110628611500353,8.621794822832419,-15.554324299801962,-3.389598346547003,-23.72482845759689,-14.953797918699838,-6.079601630784843
-0.42327122590267585,6.617250462632034,-7.649618878344249,-32.03906437381265,19.29256699137369,-28.90545415031318,-15.147738585501145,-22.477673763233483,-7.910610707849912,5.4628516454564355,0.6923495839939307,-31.73929453684923,6.049486238401061,-21.357645975799883,-0.4062948627943439,-31.523844907595617,-12.030867548111715,2.9796001581064706
-0.9043082641633879,4.439592089233443,-6.126286140855724,-32.56039624084979,22.674932853269283,-32.51497759939938,-12.72397233449168,-31.228089898665033,-13.910626602516771,15.786224039222548,-5.8952158545057785,-31.13178013865711,2.312773592542765,-16.417514783732557,-2.8960034643831327,-36.79136232382633,-7.740014431209346,-3.102345175788094
-14.180398042294957,9.098058982344547,-2.455189199033626,-31.913934959827138,22.051312446055633,-31.533952077540373,-26.416042645661253,-24.352677681494193,-22.249007810552875,20.835472228177967,2.7503652620830046,-40.78829289834149,4.150051817589603,-22.413849983653446,-3.046076499120718,-38.94148529356565,0.36025269613971833,-0.008702707513158714
-16.227751271480322,8.48304371245246,-0.8356063423536741,-31.17393925972987,18.105452606341505,-29.868670310658754,-29.856359011192403,-11.4219674141888,-11.050435781887224,16.704252840306214,-7.160508055760829,-38.247562163592534,5.604205923651779,-22.842395952361453,-5.4463981400518575,-30.356955961044424,-7.359224900882678,-8.247639593185289
-16.81215561393172,2.496839633865962,-3.5136606185807673,-37.86007527347909,8.98199827078416,-25.858934558654646,-28.31843683382147,-11.381631844666906,-7.268463543113061,-3.834141545095026,-3.98675186602593,-40.59969491771545,1.6946946196721875,-32.84000642402282,1.9149644381848487,-27.346657600297963,-25.1365942457406,3.3336222520546674
-10.953078821652724,3.9325605966209167,-10.684662103232416,-38.007302834730694,-0.8266533274581143,-22.336803880019623,-17.310015543177748,-11.829208404860477,-10.610136103438307,-2.4979122857976375,-6.088046079147006,-36.516388694436884,-7.285509117996618,-28.382782935644098,7.905060824656029,-24.53944992663341,-26.213588955624036,3.484565736252353
-8.02567528856058,5.075193871032415,-4.672554007435945,-38.06104598134864,-1.1639569925440743,-18.716317217170342,-18.608764647812176,-12.374135712439202,-13.262853939697312,6.161901048040903,1.1842447193817538,-39.76737323386423,-4.929908887127752,-25.974790831995954,8.031668115997254,-27.990142966938617,-18.793414342419243,1.3849790208811434
-18.38167564526866,8.268472864338953,3.2920297842208175,-26.88833203306283,2.11076197239041,-6.11060643169127,-24.011425361407206,-9.500803732227308,-19.132947783115924,10.42633259864768,5.818192102652501,-30.821081947783394,-3.6410453204333386,-10.283673880289362,4.736264138707345,-28.32361849101631,-17.72000277774873,3.2849189632273084
-22.39188313173053,7.262248808418883,7.740262450564195,-28.805944486429393,1.7709686360669075,5.8122251106580265,-26.681945138414598,-15.318839768391129,-14.938987520143147,-2.7907925591483167,9.27863505735512,-27.74417133706926,-3.809560705083893,-0.6455753680176326,6.710423271101989,-36.672878358174444,-12.348617197193464,0.395151403588871
-15.85702276143503,5.474488221214532,7.207284898326009,-25.454230910788464,5.238787672129462,8.165335037392918,-19.588953787584117,-20.941455800491934,-6.83343472940261,-8.977420055606148,9.905364218297795,-22.723989985802113,-0.747898531052261,1.1817528035344802,8.290033278323765,-35.8501744294496,-8.245706153848246,-0.8389493267747481
-3.6599882154417376,6.71378765042029,-3.971044422244324,-24.15752105928867,12.709669418673148,3.9761242936456487,-14.841995980073298,-31.34926160406809,-3.7031691059760092,-4.813225742138135,5.940511871856497,-22.498883070128286,6.032211196374938,-0.4070055474910792,2.1508015361273563,-37.28147105692042,-14.200424397764882,-7.1558027207891275
-4.844044336240889,14.593427291034471,3.209631046025529,-25.5994149028916,21.44933029579095,5.940109067628175,-17.616914597851498,-31.405371076974163,-10.333446642481942,8.139226959336305,12.42334106074965,-22.86952227950934,14.577591279338954,0.3500397779875599,-1.16019693425736,-35.40028043455887,-8.923343509484088,8.495750976561157
-8.666844074859029,20.71478448858974,12.733450002910494,-23.52980943566173,25.598437178399877,0.09224140862644337,-18.245573752377176,-26.57867977673965,-11.294372499073642,20.309439418872202,13.33795297863112,-21.101438917284412,19.71235540687775,1.1091844945785223,-7.111755286119857,-32.84335955750662,-0.5200156680175019,4.415823687626337
-15.323706140416329,23.026988947457916,9.463471145763343,-21.562030009861818,22.520360361251786,-1.8485421078349462,-26.396067807136564,-23.31465905791012,-18.1095894852137,12.361138522989709,14.641439930206026,-13.288265024874462,16.06529810129967,-6.528057696609632,-9.356078899017641,-29.220070117378338,3.978241246896409,5.214134179354885
-8.798763254886909,19.283854206824152,9.610888083619997,-18.719484831933464,21.199739070936687,-3.3002558065449867,-19.216461341848458,-15.753903324541984,-11.833526854810687,6.755563516413797,15.650167537687533,-9.195709995503726,8.61693065789498,2.829402796701614,-9.45564887851296,-19.061565978154803,1.0557871311943468,2.3944286677011597
-0.32265653018906626,12.610368897817512,7.609218694129213,-14.123236530732585,24.46877262547158,10.092793465970587,-24.343868252780894,-10.146564981988424,-2.720279530425633,4.664565923259564,14.60626599867831,-10.776857860325336,15.14092465638914,4.278917126248498,-4.773662271804833,-14.575046654228675,3.798796807451946,11.87488982612033
-6.594859434602339,5.447916928340158,10.392171906794582,-8.554526045886075,23.538386856387614,16.84590695710814,-17.754455554490438,-11.57090169984761,-2.6841253861915275,8.627205312641001,7.7987104979745325,-13.051087069617147,15.910375800647198,16.96147490511131,-8.200895570259057,-13.61201857640673,4.1993723038021,-5.700579099951488
-21.658248651965337,4.534822307333084,17.17849549080986,-10.99784126712084,15.28365398816031,23.69747149181285,-24.839204415318875,-20.80822865310369,-9.771944570043535,2.5299126255631315,10.364419933275535,-14.065160109579104,17.077677283033943,11.775139704735352,-12.705945035215665,-22.813179541064237,1.0856565066843873,-8.241518029896582
-30.66884546214659,9.578051368650426,20.448553455230755,-8.562333124661496,16.892453538775566,22.737211506067002,-22.453196794647333,-22.81930511449314,-8.553850470152128,-6.107708288134372,7.752360145089607,-2.295375149572017,14.345840470088637,7.860896241806888,-12.917587266640476,-14.931986309610313,-20.190976814438805,-6.880933630026404
-26.009342887375375,5.147620421454855,14.440549442517094,-13.455188651736895,15.083447331816679,23.633243250514862,-25.538030947355075,-22.97535597809797,-1.7642975270998336,-14.941913952958597,-0.2328151993824239,-2.937334995542706,14.062566793159569,-4.546964399595207,-9.12874654876045,-10.183552187978918,-23.301814541759494,-1.9118217134028646
-18.226772615234875,1.4975312116952022,15.365678942029431,-10.344109107746107,20.40378290203052,19.54952344419844,-17.589510451152474,-21.960032479729,1.807478534779991,-9.812374425740138,-3.141758648421998,-0.561017029718677,16.130143248146297,2.8723649011955446,-10.71451575717025,-7.8842289768738105,-18.69620211564782,-7.494575426901523
-15.426721861905826,0.8738506589754973,19.512958778851168,-8.6042010128599,29.435547953747303,19.47056122754234,-20.678243897334745,-24.460951009962365,0.5012556163905613,-9.469418222461456,8.10766908145158,-2.7836199121654275,21.62274615373129,5.509193427305528,-6.834834321850919,-16.53019098523932,-18.190694400476353,5.570450537024618
-19.95297024512176,4.15543727183489,20.241673910020328,-6.575243319854113,25.577032178175337,20.661935415014447,-20.54615822033329,-22.079588535425522,-2.9485914904501813,-1.4128969922144456,5.878297260184537,-3.6479111604874603,21.848774286673788,1.1174502073218795,-5.4975842896705265,-13.855419366936466,-21.19931435942785,4.079607435901718
-19.59829321389598,-4.087693006965804,15.793996651445545,-10.311973585645585,22.598079256190804,19.412645886800313,-22.564383817948983,-22.237973630483893,-3.6592191368600337,-10.740892262384651,4.135152821039171,-7.939004576704413,21.30041784909121,-7.275420572620151,-4.35892603181004,-12.457703550141527,-19.81175558041878,-6.0099977128460935
-15.632233514701431,-7.351443084938461,12.322376641908036,-16.103352553339143,18.44797567877923,18.65241730044912,-19.896831291251345,-22.690016256595086,10.185914439124861,-15.187481466957696,-9.914957650351624,-11.84812783273589,24.95815228934079,-9.90359353003548,-3.2234889921105028,-17.317524335848198,-23.012501873557802,-16.885758799470217
-14.304877849708413,-0.752986734873117,8.94790662535397,-11.546799362701027,21.232409535426967,20.62736856561353,-15.180209785098892,-10.056641620751977,19.348188187690734,-14.65504887624298,-8.244291652908743,-14.105604980318226,28.72027981202588,-6.7670202330340565,-2.18887463628199,-3.1414582475521513,-23.57485341150658,-11.359924566024722
-14.151350712934324,8.48094279098585,12.506641238826068,-6.408037505327595,16.693442964303227,26.704697353247354,-9.48870238658452,-16.85791038175511,14.452411355166563,-7.190481475709927,6.900994495877907,-13.73472856363648,19.69590264703544,1.0601096075995557,10.268587832258362,-13.973072537711086,-13.197876503020593,-2.518641038781146
-7.651996030389041,-1.4273906565068533,12.646873306910525,-0.8823293533168908,13.229730277213559,27.606906075653608,-5.361356107474888,-25.71077554334942,8.096383252746875,-12.813657515455805,11.887700099100021,-4.485268569546626,6.283507066150719,9.96450197058661,12.07830777487704,-18.561812109597028,-5.2606571019019475,-2.471474621834696
-5.158523555027884,-7.235504552787113,9.075643372900494,1.3193865861275675,11.720276181747208,28.998129801666295,-8.169290287503035,-30.853458714936895,3.1121277055441654,-16.192353006974862,13.063551479659619,-1.9823243268705113,-2.3371619873927827,11.840603654824106,12.22485707682138,-20.03264176330163,1.1157475034514803,3.4302313595946408
0.16511977958007407,-2.4003893812846187,4.332066963411872,-4.881034123672439,11.579215598582401,28.241594107840072,-9.6115385546366,-25.84057483156039,7.995815991390595,-12.639037289460065,4.764373807503892,-2.9053892712555864,-9.974842196120086,13.622150240900904,12.3684782612433,-11.647089985818276,-3.3461264082241726,-1.512998664599435
0.7992997290303627,7.804378459477472,2.224810783344938,-11.475596386495566,-4.96708256909459,26.216201645385723,-7.930201079430754,-33.32874287886391,7.317471577700486,-2.153750844925778,-5.880842816451761,0.07001466917675003,-21.02422080660119,1.2464599150573417,10.65373634542129,-10.885800335897883,-11.028955037798275,-14.371432098560888
0.35736484789631184,9.80431538651301,1.1913664254523386,-9.479725429259428,24.777724637512193,31.320499502103086,-1.7580069936303424,-32.809858178873064,9.670920530167834,0.6148052413855589,-11.938422708440271,3.526018167630127,8.94888194464374,17.878283257710336,2.3931230150567817,-7.689929250313316,-13.729469735126568,-34.26614643340406
17.58961376864384,10.14243309851235,6.0169792272342875,-11.784178074461881,63.41079265249768,31.8355387654917,-10.333466647958826,-26.04177827796467,19.450704614716457,5.5300231083821,-4.52153422773589,1.5056545247054345,31.994420652801324,30.802303373773604,0.7704975293881775,-4.696135063909107,5.740108585547281,-18.325388388184205
24.46828788721158,12.041381029257415,8.205442544076455,-15.166181907904015,70.20890980264507,29.909768119767673,-4.847480345086314,-24.05984350995398,25.035494744759255,4.388613449267403,-2.185169467959124,2.309990826711875,25.455701673756025,49.784316883311874,2.7585354102078306,-6.787199899912913,22.86770224475375,-8.834951517443612
24.997367590223206,15.305788696038467,6.9755119209679135,-15.914673784946167,72.7116207756479,33.258125969275376,-4.636212428384081,-28.231275417220985,22.616579581937806,9.495412897098248,1.6137200268732403,-2.3617180834894143,23.512833252177607,58.71081577110588,7.771356806989068,-16.892746930961888,34.43061911790122,6.217076756125067
21.422994105174674,21.88875697847748,-3.532258822741305,-11.783454720010628,60.37194756616602,29.57571256405174,9.538981908097163,-28.204364221999466,20.49480611290935,19.7761482281199,-1.132819145890469,-11.142097654103576,14.349125222552367,59.14433944239734,11.121457906962823,-13.332644755602693,33.495171091713146,10.814840250075246
19.897618371091305,8.059402272693406,-10.329371215221634,-5.50686862125589,40.51427454630384,27.65169864704169,9.74806072349525,-28.959662864934423,7.732445079987478,5.7381444134009,11.255214122954579,-12.605022808902248,-0.4730049141543198,44.248858069352565,16.031612972571477,-10.853095075867234,27.092724965426896,18.825753968311442
17.589179287691735,-4.111677630137924,-5.114897460915477,-2.944305320479234,20.17000878464261,25.728217704600844,15.522645470431655,-32.9386205857251,10.111076100424382,-4.102575323153657,3.718675519220959,-4.308877420200524,-8.844106377992425,32.77466613422888,12.345486993209722,-7.793795375498412,12.781844759444912,13.0620742986697
19.868865932074616,-6.128309448422584,-11.717305375212334,-5.462896937159947,14.18317247466651,22.438032924008223,8.112525099963204,-30.08249346123372,16.20467840481163,-11.699202033364488,-1.7694573446713537,-6.175664855365451,-12.033841364949218,32.63204534365234,6.996850612875492,-12.943817554175137,10.191741728389271,13.25068619588064
16.0919979609473,-2.7757710882643103,-18.12467120474093,-6.910128030673576,9.760643270213585,20.90616234729806,0.8968866505739239,-26.543720045062194,19.274801383209216,-3.770318621399028,-19.564884413386448,-7.65817071102617,-14.339264512604927,32.590356712774415,-0.30719715746856613,-12.92392281967689,16.09971385070211,-3.9485859429699963
17.000940044625537,-5.870696172867937,-25.020576435302456,-4.453844853439961,6.804800974568121,13.319956002839294,1.2977965450756503,-19.099593496485,16.489302693460665,0.6407807467763988,-24.569576751626464,-10.904684105467833,-14.68625716978265,25.325267242348932,0.3945065541704422,-8.710556600736695,14.489893020390445,-4.843794584247085
17.126871878363048,-13.167002071533663,-24.49472040333324,-12.8402855100979,4.046128456181101,3.2927184755280017,-0.25512409237416556,-12.144708416150623,13.512262080371274,-2.8605363126566226,-27.23292088278333,-16.793940991407002,-13.172595909760094,18.844705526557306,-4.960678297260065,-5.772416896349668,9.756876654856788,-5.743752196410609
17.055752902627344,-6.012104036463631,-19.47681054910086,-8.826825918750169,10.176194042350161,-3.9020650247669018,1.5117238025985262,1.7429293846590959,10.245951351625246,-3.5319516644771562,-17.88680682499155,-6.087180463719335,-10.579663756321875,21.937858490379433,-3.28653882988148,1.4571263006690742,11.764093417233143,-1.8631963750164018
19.424354929770548,-0.714886417423287,-22.955300465786024,-2.960418914907436,17.577719441518262,-13.830919316074983,-2.6790625932451118,8.20764021541715,5.420748203904542,3.704704731586112,-17.039364182366178,0.7076603786522782,-5.735691129683893,16.538030954011354,-5.813638276990415,4.286676200283566,22.074061823265694,-5.213992963248498
20.912327428790174,-0.6934098969278333,-37.56692218561899,-2.7606263228118344,22.44207423336163,-21.80630728857409,-0.6201819254366416,12.718267742504679,8.509380562306074,11.036782085819759,-26.839065220602624,-12.8157284039703,-2.840086289238311,17.97747132714389,-10.881716983709127,8.478184707665367,32.09289314807921,-17.65159972118967
17.41805773276589,-7.900866991008003,-43.97541508377087,-3.8327647080715543,24.47630267237671,-26.265740218855477,-6.081290415253604,13.224011687072409,5.44905983634704,8.89379118965439,-34.297430220899514,-18.33640985506659,2.794594792298147,10.142632189711787,-7.553028782696632,-0.03091447396613134,37.81661016012139,-24.72262864591641
19.78156718539975,-15.794224664630317,-48.33318757239943,-2.8563849225599434,27.782043376708984,-28.08817350697759,-5.780849010571762,9.431913076264426,8.642243917609765,-1.845378030921848,-47.324733525500825,-6.674362335258717,6.187677866758515,10.416567521075537,-11.062100656543452,-2.1972107958585774,19.323021669826623,-37.36470096175887
23.901242646922686,-15.681977347175216,-50.15192058916895,-1.882212777787096,28.160023142257533,-26.297066032661547,-11.340041186606815,9.05694955232335,10.862183882360485,-10.536060659035048,-48.244919171963616,4.103927881546387,7.534346975434902,6.59203261050785,-12.814969780450157,-1.731544330171289,10.889979933108856,-33.507118471911305
17.08158959579736,-14.69317102623085,-57.24420184186683,4.461014805366421,25.317274497493464,-25.38471059328492,-7.328855239963396,8.87643372829941,13.280695461225921,-7.607825904137747,-58.44502481318825,2.3773867892814486,6.736811065491802,13.024684679966077,-22.57732725809761,4.295973905193858,8.708816209900476,-40.98228489641711
10.455601851846001,-24.25378982214069,-53.00818287558833,7.38418911760516,22.281189305799113,-20.956546036748712,-12.30217192484326,11.91777539743433,6.913188464550462,-13.666483625361362,-46.18627498387284,-6.482611583480374,9.654399424087686,8.327444720721296,-20.91519867248481,3.8736012693276187,10.43572551491175,-37.03589123626464
7.636626992896057,-26.394835554416378,-43.59626758460685,8.156949107332142,21.688524689119085,-22.192437432348918,-12.490158950053111,15.348921703057044,12.17005159256298,-19.4345741094233,-40.76597929097012,-6.167025230852381,8.572013717290776,17.7936302179257,-27.360046704625816,3.349252779194458,11.773745710613062,-42.17600402158308
10.773146248194333,-21.99525128866898,-40.8250077242532,8.927853699997428,25.10179890141165,-17.86178244672673,-28.889138507894938,12.626827371028071,4.148481285359041,-21.103469966435288,-32.808979710916105,6.644709327372553,5.3450124713441625,19.743182407156247,-31.462406601484155,-2.6480829591865565,17.8010553637,-40.19137612094131
14.786967837829566,-16.23091797890025,-43.03418589084379,11.845462030568608,32.228029467196855,-14.410029947215623,-24.193760978119208,14.298553311291474,-1.5263646367275676,-6.2706615184462615,-39.40536325144734,14.569715405384315,3.8795651520798327,30.289584767476974,-34.00345252558762,7.757094459196505,27.638708546161933,-50.61348991600582
15.478819414270273,-17.109788293320285,-47.684664056913164,6.753458081502028,32.42250985442058,-10.567667519379164,-20.18160863482774,5.617807352413408,0.22363499424677435,-5.893674525302934,-39.070407017460155,2.178271694162575,6.128684890938889,22.772227463059473,-28.34236920537816,6.732497904019564,32.98576873921483,-48.148921687606745
8.161139712936702,-15.842680778977662,-36.319091656764506,10.351404375866657,29.98216424116314,-13.170775327020582,-12.94627727053683,6.702112124719722,6.371008258343049,-6.007473074318927,-38.24949925233868,4.236735721481537,6.4280796300144845,21.312522456953126,-29.12772755938843,11.95434924075937,28.861660258845948,-48.42283746782998
8.5568349571767,-17.507810202022448,-24.953299574439953,9.65091033643899,24.809315045252895,-13.625510699517822,-14.792546785114597,6.320857206174271,12.032785578227115,-19.893529520533814,-29.71594205382381,13.323321513387938,9.367518641777082,12.140675530868773,-27.47258200257087,8.676502596733176,17.707793357336623,-42.645964907413365
6.704825530664848,-18.88248047662507,-34.876635927455624,6.8005349109622735,24.13061182462467,-13.201462791488943,-22.106984753765502,-0.8971019227909487,1.095356728080727,-23.625715974731072,-37.884142821664625,20.16074610596383,10.84523101777069,-4.157422669766557,-21.911974106928124,3.1492281155168733,6.653147521005652,-40.09571026678544
4.3629604708058585,-20.747959866634112,-39.91678648515624,9.612985682194925,25.992873283855214,-9.750199890409315,-21.119753172686035,-12.60794685336952,-11.011438922306727,-22.184594359600272,-32.38251426589791,18.889747349116043,7.5407065392907,-8.636229215530946,-15.082569479560778,-1.3069344767949218,8.295533418313603,-33.154687487062745
2.800799973412151,-18.709653360557006,-29.81964811956622,16.037538091319156,26.19678691989442,-13.330507808124267,-14.955802558779276,-7.424598428395155,-7.19758082580204,-15.960811527795029,-23.562744301430044,17.03017323973416,10.098490675196084,-12.038156964678642,-9.52337498499728,1.948919399089295,12.478506030740125,-26.99867124235265
-1.7902983703960151,-12.572245676984032,-2.7296829226669495,14.355350825770493,23.961058051585788,-7.633582498001724,-3.3220620860272145,0.2972910032596019,5.407831669630606,-8.079429762301881,-19.23741721254087,19.172139161032867,14.709782282583962,4.5823315181104185,-9.14060490017608,3.1511955703118204,19.39733859367699,-27.682352701332864
2.1132881392160208,-12.589796589626946,12.348801447004426,14.33228483348864,24.36385343014586,-0.8627126417873743,-3.4061960642304463,-5.067480181946966,15.67173159339654,-5.962450612775638,-17.258025454902942,23.753322304459694,20.007222734066634,9.388746163165813,-7.488752154199375,-6.87975220083846,27.68477833580931,-22.51013382524929
0.9371429182325572,-12.414546868740905,11.118905783970533,13.624640627943247,25.25666417308074,0.24367925068464813,-8.665037692312648,-10.139763478100491,4.550774810061217,4.550486243843441,-21.433181356348204,25.59806276394275,14.662363005936452,19.959410853333367,-18.04448783044564,-9.881743775458585,33.33681137705999,-33.357253556145636
-1.9983616163278963,-10.19099011424509,2.272210397973275,14.966920468453218,20.58466904686232,-0.21282008331428282,-16.46172961142943,-10.231947983473797,-6.66573628805728,9.396655533012762,-9.789851634545185,12.108711525535224,10.882268634670844,17.739283137832203,-21.27616607269926,-13.667214331145864,41.04096062856924,-24.18790798379175
-4.154114986251688,-14.512994870174225,7.781748213812044,21.191283532139696,14.840080130719862,-3.111168540797621,-2.2840806036936296,-8.664356260884762,-3.7198566829898194,8.185416901886379,-9.574501890537256,15.41486356125678,9.643364319737591,20.404339752699556,-18.257923485423106,-11.009305861657358,29.410130352953832,-21.46724402122193
3.5520618835480193,-20.888289219901687,16.123947125818773,16.477259729572523,9.39005932538717,3.072209112463538,-3.0466180277903465,-14.323800877277558,6.845259975354834,-3.184862825248423,-4.185270326844549,15.789852695864283,11.43378543426514,17.798099170538656,-14.946783038795191,-19.193252033213263,20.905548160335485,-11.230101388518598
1.9792612006773926,-15.840085843518754,21.04875271574172,11.274310094477425,4.8205042488740375,2.907351986659509,3.4190634133842046,-15.588967831813108,11.552760535064152,5.462051268295587,-14.032576655681053,15.480003019785876,7.75715473106862,16.95183988928128,-16.127874251352726,-13.023168551880309,15.136528557242737,-17.207204819343833
1.8698437128300127,-17.337386410134542,26.462515144712448,14.76234399408079,8.065063402319218,3.913868299585124,-3.29740591210164,-8.065214802892449,4.152464728665469,6.293697762721413,2.3881685863152846,12.922985363871586,5.742332958098482,12.201332038493057,-11.547034165397092,-5.780319844272315,20.59923856182341,-7.0737336275026514
-1.8543836521242865,-23.329352503180985,26.50581005324012,20.691346741994245,6.428177431115717,1.5994644278979617,4.73418540321777,-4.5456606925550975,-0.8047088804331395,1.5562005101564251,4.158424035753711,17.103504974535383,3.924299406538111,13.995870812992088,-8.430834891902677,-1.2731687579396578,15.906574943945802,-9.052663536138894
3.8927258075529476,-27.370544025057917,26.061563883112868,13.729132643587096,0.3004222112203365,4.362668664035647,5.150312165037224,-8.155307141074672,6.349271513936856,-5.137106962264969,1.141674973601205,13.959038784003447,2.888845690208756,9.737522773318126,-3.3611545322867418,-7.607118032010485,11.11722511189652,-4.295937150952742
9.931354175658818,-32.39066054348144,24.34855343203128,7.450205849712418,-3.3845595989919346,5.46505981853165,10.15828865728691,-5.319681291834007,18.58296447345757,-1.2860354571600618,-15.744193212743106,7.786717110446483,4.979602630757135,12.121707313712706,0.2440872524901323,-10.42628961195663,15.996901650557941,-16.729584996464553
7.5699723965302095,-33.799752239292154,24.784837511167666,11.034470912419502,-0.6228592101117556,5.687862955132755,13.70343112708381,-4.827931903376578,19.880416857041535,-0.07438011126377031,-11.342337238587819,1.1258290737133665,2.8720847680338135,15.386529181947457,5.217066334586805,-9.535177315829507,28.104098111291606,-11.88030684265074
2.179766181360039,-25.2500265723927,30.49550080792705,15.888122331995076,3.3119453317209278,-1.12139612598595,15.883492720913232,2.3045017897823517,11.706411471126081,12.072286063777032,-6.2584819038874855,5.79314711795022,5.160018383972744,18.75063621737721,0.6202173040399028,-4.152328188949358,31.71585396078782,-10.93971229971958
-1.258709504063563,-23.147941060828117,28.882730858783383,11.659513888418722,3.536905560997244,-3.146167128145888,6.249189824444734,2.0149546401368568,2.45943121020112,7.126194088813625,-4.789507952164993,11.33947683553533,4.616576065818984,9.616088154645826,-1.0461676251990966,-4.53161369782325,21.460927789269036,-8.243530515802611
3.4069934323516797,-29.93489299928421,27.85683956138726,6.747284021769957,5.813765449927157,-6.148292643421463,6.285318929037533,-3.255079716186362,5.127873372107006,-0.45930671804680223,-7.618958371950926,11.026615734188319,5.440886314127665,8.002628497560707,-1.7351418757319674,-9.012660916590452,22.339634138719738,-15.510566577452916
2.5048021094028856,-29.69262116966391,31.812459027101184,10.136016120269291,3.697050358893879,-5.244921227186465,13.648186921065218,-0.028782367008105325,9.55525153971481,-0.2348330412027142,-4.590365711641194,10.030603300309682,7.535137490651589,0.23807907851283616,6.073041740949325,-1.7747246243405925,18.238377826600946,-10.963019017388852
-0.058962823530378294,-32.47981988688629,39.48007123098104,17.52883937690506,-2.5203312329088554,-5.904921503224243,11.443096305916697,7.982903915968112,6.073368777363695,-0.012997620425757361,-0.000606862012876519,18.41036360261371,4.2584499064946755,-7.427560489222472,9.585320195890892,4.584537872596751,11.696191021469572,0.028063436743689607
-5.749156088075612,-33.31588816949098,40.800960267041596,19.06239021911353,-5.514114362597844,-10.374456260692803,8.264018577821469,9.25641767078605,-8.442902396326254,-3.3094712708218417,7.90822228524242,24.64245761056173,2.251397182852184,-6.205190438818402,4.50485349780069,1.0808053834899862,-0.21672845613394642,1.8375707815591298
-9.292247968432546,-29.27103429943365,33.04073941814703,12.002318488202445,-13.585273151007108,-4.786160733335317,14.267447800965375,-4.509096678308832,-17.294167264280553,-6.217935190366728,11.81185702768121,18.180021065515014,1.4161696362725955,-5.860682602346348,-0.08608838495755222,-4.082481410647569,-0.21503135844741905,1.8876209987431345
-3.1685803268500097,-28.64610343747331,27.332419700152997,8.946537575536054,-18.53062415267175,3.5356006885101774,19.29706673593583,-7.2389697749690765,-9.152205781306689,-4.343780502053771,2.1399055737604407,15.820354221029511,-6.938922669328019,6.106055084093857,1.086112127407791,-3.1901710453620433,4.376880386761371,-7.927247427135292
2.5631121782314086,-26.558142637622908,27.777653434937076,11.555292292973476,-11.463380115516056,11.954035614469403,18.76304789671127,-3.9136932815372347,-0.42359498153123454,-4.913668024058749,5.748314050846236,14.926864223324584,-7.67708008146362,13.581396083956006,13.490387489001883,-4.054693377361095,10.726860359707656,5.792044604932414
-0.6910385517328095,-17.83122260119145,37.50151410911856,14.945757149845488,-7.52055809563787,11.777572258087998,16.96241663868592,4.197235552522127,-0.09292244598568011,-0.7009116465329868,13.457323236673751,21.261520961944477,-7.634493369314001,20.959838665811933,9.977984259588577,2.1133367975768085,11.705821158986751,8.767763209545013
-2.1886675816705674,-13.793569042405537,36.58184707963724,9.645191129068511,-5.823305862876531,7.2054610436422575,9.500657860579135,-2.63299317939532,-17.926036393593527,1.0678305924812568,25.755290860395903,21.347716525403733,-10.522304394077317,10.760546799933874,12.229018299530594,-4.217440843433178,10.927026507002719,16.62528051459374
-1.9297608776355624,-18.449074161522823,28.14372290313753,1.4154589111971454,-3.051327645158768,6.147947054595867,8.194439670431365,-11.318188527207889,-23.063163782950518,9.57240239543728,11.880098402495925,10.791009760249247,-8.43038260440752,7.593170068512201,10.770785516989369,-9.96070242842983,15.812391825984422,1.1416440013071067
-9.38710465717302,-22.324859087506624,27.421770431465013,-0.4658979640144345,-1.450818686823279,3.5267964933455853,8.844559073618907,-15.412885759817234,-21.852129125389855,-0.48053340271339007,10.308965618661627,7.2676056322661085,-6.0464444801540385,1.3012022985866203,13.220685419731716,-12.967792117837513,11.61552548928686,7.044233585310206
-18.408246146301877,-22.491110681892792,31.68159284714415,6.344960687531186,1.3219398576188048,-2.6111761706457,8.228388693450935,-11.987298741242842,-20.054808976609074,-11.219591419418915,14.108263541201275,14.293333561358885,-2.0034250569975347,-1.1817582994889158,0.5355534585854356,-2.3985164629159232,-9.573922226533938,9.528118630931804
-17.469556267930624,-19.045402973286166,31.059776823859377,7.1017687009022215,-2.3504222261629373,-0.9377031999905137,2.1467219069162127,-4.850025417670106,-25.972179550595655,-19.71501910208032,30.114104930972154,17.219680005298148,0.37817076547078,-12.941950258535186,-0.7216113418437966,7.29396189800171,-16.896177983221936,23.04678034455455
-12.430483070178397,-19.702611027807166,21.55237197651914,12.058639543855058,-7.975714810301959,2.0041173333430633,7.787395276774519,-9.040303928721,-32.37763472813441,-10.048583043808096,23.658063289877287,20.246071904501417,-2.5151333639979,-11.811167809274163,-0.609463650376272,7.711258694742698,-7.226266281283383,10.099782365492365
-5.048848874747258,-21.923544592162436,10.972013027665408,9.301377812751129,-9.98751193017554,11.487774577444258,15.287049384514736,-32.17538430820954,-32.72817085918444,-7.31829927751236,15.541308753745238,17.806158756504004,-6.191219491072745,0.25733324120058043,7.610471957363224,-17.064657983918615,2.83392536479678,1.449448759978111
0.08545019122177488,-21.02054061815712,10.451696439101834,1.2714740290927704,-13.757053692027622,20.091252153109213,25.427016467361653,-43.39536718983389,-26.340246935314767,2.050282677544592,4.787335582069463,10.290708717003586,-11.431485650095587,17.403987842688814,18.957740809541562,-36.564395263528255,8.401438883027636,3.5413262553532103
-4.351898049135534,-20.997472515580974,12.66710438926483,3.8871849647093786,-14.206201054588341,17.169828975919422,26.195462730594077,-44.26272322168997,-23.8586179888845,-7.9197700376243505,11.123079062403008,11.860227753405148,-19.01732779264237,17.558046567849175,20.639267675640536,-34.28361902061643,5.56989435921904,0.9456276316056567
-7.618523158767203,-19.510458272846865,8.731393849006274,8.749988196051268,-13.483486668413445,14.14943398310443,8.900915419483551,-20.12873855682383,-25.77163222032216,-10.860840154767194,15.212378492835388,11.77249449573698,-24.163648497277322,5.992927838006018,17.147395916041106,-9.538551079424915,1.6635528821372496,9.190069025912013
-6.979988690687309,-12.848405310643734,10.558819107840812,10.391091592211255,-6.80374243260756,1.557240506518494,-1.4561800442792574,4.9828351015408,-30.32150791328513,-0.22983024584587852,15.2974664126324,16.375388445257023,-25.50336896270257,-1.3732555147843222,7.31031848639488,17.846459122257123,0.29568243366954405,10.20810359114737
0.10282703525290782,-10.776987093942957,10.532085133446806,7.6386416673993685,4.758736667406202,-4.981538084699025,-10.832884077452459,13.200683129733587,-36.04343464800914,7.469131846387327,17.042563580454132,19.028305963358957,-22.157696707824936,-6.1031252795987,2.8470485045837695,27.558771117819255,2.247477682427178,11.910142871913479
0.2508347810155982,-5.483481882555225,7.7722797081486945,8.500610579989521,12.512353355633454,-15.135042256291015,-5.361738103766243,13.314053314714602,-38.249894632107655,3.6421966254360587,16.834405366221166,28.813535827081818,-19.595589889029245,-7.610831969165922,8.249924725797708,24.286123442677795,-8.008708022448726,5.995412957419907
-9.660991242382494,-8.198425400988008,4.720852565366444,10.730905838835735,7.667854173480058,-23.532119591446303,-12.9727986220019,25.049859592926502,-39.28472539768731,-18.44898695485383,24.438837422311362,30.887216691091833,-16.15698907496033,-27.185858764383497,9.944602333018885,29.611041059271304,-29.203388611147,21.17542275203391
-10.980000029201786,-10.816119084013568,2.9403326069423805,12.962352674997573,2.2370859872019278,-28.805584079053844,-7.298420950925276,31.415704765636846,-25.085262158035682,-19.448315214705808,11.046897892369882,27.593245649124125,-14.967061462175852,-23.519076165896706,-1.1510091433910485,37.18593249430981,-29.402546061288753,13.894952657089995
-3.4131949676453948,-7.769963989837095,1.258830885424203,11.581646355262949,-4.561266500783869,-24.314730764784002,-4.549737490352139,30.16550945887046,-22.116800306361714,-3.6526929441025358,10.838867122307269,16.587944411387078,-10.361774918807626,-25.712583937715515,-4.3333911808264585,37.14752474028519,-11.926604862036047,19.1156052451712
-3.464709990546393,0.5495181711613313,-6.9643760737761475,11.764676818108077,-21.516451364839263,-20.89958917223239,2.6952900478308646,35.6550090978345,-27.937942182177007,3.0586158585325283,8.677866470953482,18.086568777660794,-16.208642551476935,-25.17259265218997,-5.266616894359924,42.58211070660428,-17.69421765197557,10.95820998502151
-12.99001724509511,-2.752351024156585,-5.811074805943665,13.218498616209425,-32.22201768859754,-16.704681574043242,12.092923465564269,21.9072913238518,-40.20494590412288,-8.689493371902406,19.310285536220054,21.24920928083971,-15.612986463674947,-30.297758051574284,11.967599321677591,19.01666072032925,-20.33785218924315,13.349042725379725
-22.41863251337416,-5.0776112331902254,0.42179495859281424,16.04079533019357,-33.357649580975846,-13.390207834118172,22.86194588760523,14.411071649329,-36.6518886592054,-14.091914816127622,12.65761092517308,27.052539092399833,-19.219608551641482,-15.599498324996826,18.65795392970912,6.686313068750321,-23.27558493315518,6.756683772211632
-17.297183799468755,-5.840203034394111,-1.742535024006287,15.251046129037874,-30.489883235855835,-12.811682226573401,13.908327924198655,10.920266135753781,-16.79052176634796,-19.59401817883022,3.8568626410782203,22.898801575284054,-20.387887716875415,-13.890900694388051,8.26144845449944,7.5443685542667485,-25.335576403067552,6.8064986132615815
-9.246914953998935,-3.8681195778945963,-3.026580440585441,15.634502282329304,-28.403990549810228,-19.16840370629677,6.814470016741112,16.80609325964087,-9.722889918734493,-7.6173677871136976,-6.212969679413307,23.046114695124693,-28.78604241380941,-16.480510892524336,0.7003300014575204,20.61439232512933,-24.662380676104394,-1.5406790203715042
-7.4476255574698556,-4.923052705609759,-8.508545629247728,18.265419035473602,-25.146856871724516,-14.19838990456083,-1.3493228185817774,18.29885305407321,-21.601467026685935,-9.607712233956493,4.61649062818441,23.97888377561467,-35.332001884105566,-20.536337034671355,10.135036965244407,23.337585412715338,-25.260013873562507,16.579088377297833
-15.805596463431339,-8.614255903112946,-13.110230760604676,19.921109186652618,-24.234198424824637,-10.304187758727767,0.8429395463440663,11.101644912304906,-30.453296032873205,-16.678152173624763,10.17303852224109,19.349435743768467,-38.56099594337452,-12.874664663596993,17.913004967793366,10.928853914250064,-30.644200954274414,20.344988186999775
-17.035378165814087,-4.882865786226937,-17.41758569744556,19.625011697553575,-19.806585716396523,-4.849051124684673,2.6489375031487317,3.906046178934968,-29.149394620228264,-11.152590411705496,8.698903644085982,11.892263435920288,-37.30122442618135,-3.0660305682951376,16.807623099534172,5.458978735918769,-16.30289290334825,15.128317277676546
-6.742342119963606,-2.6156200945242,-19.47745978211418,14.642724372991891,-13.133601537679462,-5.450295473134726,-0.6188714286564689,-5.338718754644382,-20.52186825649433,4.234603765627364,-4.591074674580147,6.6856415418401625,-30.283226188122676,-4.8802520725794984,7.2095820145485545,3.4124090520111547,-5.869303953887171,6.983975024542389
-0.8446690084816106,0.43372613738321064,-18.11796496302447,6.43912603869518,-5.973114555790739,-1.7562109920295397,-7.495594897031399,0.7504632040209901,-19.51238053419053,4.0924665383454055,-4.891762217723567,8.221894418141826,-28.151781113277202,-10.602441296151753,2.107418641025112,22.17234652754438,-15.749972846658798,19.74056775936816
-4.518187394901796,-6.770034589965851,-13.339106720472326,7.221445163617313,-6.723716867861951,-0.8958222610704887,-14.172557618328192,9.478119550451726,-24.94906633296485,-13.336791653274402,7.7969088461427205,13.083065598372432,-22.99669516880428,-22.771770619209352,5.016866875957416,28.43762171521719,-37.448711787401635,37.67531523825937
-9.852587980036775,-17.488401012619146,-14.516034207328985,14.059958759155172,-15.776062908596467,0.5488831630597204,-10.395676327566282,9.41832672060066,-20.132478328078797,-27.447336762927467,7.3027315907689925,12.480019059403904,-15.111021187772252,-23.712257680517418,4.023735404733884,18.595014111021953,-44.98859462349728,28.268304026903586
-13.039185887388204,-16.584306293431368,-12.371268801879935,17.7748467701782,-24.829265200003938,1.6989782399445525,2.6631737386259466,-2.94456362634102,-19.51598684928439,-18.12162236434369,4.856413151527982,8.561281849572989,-7.7175408923330675,-24.654608591467664,11.921238867567629,-2.960766231574116,-32.51018672831766,19.64507536824148
-4.116857970863791,-6.8897079982159575,-9.93220770786368,14.069174491575321,-30.465320163932418,1.6755370056862553,10.257688519635192,1.296168121280857,-11.868975197201259,5.069946011211101,-5.596759762709112,5.526189763323259,-8.531288731332346,-26.477806328493028,17.478785500732965,0.29438304172827046,-20.619298047722875,10.633846457806076
2.3634267576281873,-1.099995805416956,-14.425531501968536,-0.8657056945670831,-31.805322295562345,2.822339991699078,-0.502941967772724,12.472432402057697,-14.183912281580524,6.2870317405478495,-10.775268326985598,4.644342623683915,-17.74764984214788,-30.45146208150847,18.74326649607476,12.44235355796803,-19.08172631198016,16.176359557088464
-1.7038892734540543,1.1755772827847153,-6.417358231724382,-5.8380614978976055,-28.360993822151798,3.2838859686419077,-7.059771062434372,19.841902651127764,-8.980083537644038,-1.3841730262935847,-13.804094500270763,11.384619343905033,-24.917312367916875,-20.657421967538127,9.952918797005701,23.3268392735963,-20.37784613842767,4.631612777712284
-4.990472783566665,2.6715433797384094,5.693737602730729,-4.26591266211565,-21.59720849304405,5.2086421130075005,-8.533873480392433,8.853598533816566,-0.06616063407771478,-10.228650925947985,-4.331452552966804,13.735159649765286,-24.37619040401688,-20.924229475982344,14.838614463580722,14.392964089768341,-15.718478371649912,2.562615207121951
1.0975933211142195,14.130368496249226,9.993502356974547,-0.3485423221846098,-17.275777297038655,0.10038298181005967,9.332783354586939,10.465044675412535,11.38594476981324,7.879083972204679,0.45496006308091674,5.152933047038527,-20.421284233672967,-11.91570404059428,19.240019957724712,15.71940203127441,-11.54904812893418,7.43036718360449
0.05618742825184686,18.950350464505533,3.6498517330404248,2.300711406208073,-14.322466046387508,0.16632509335310441,9.723230778500074,15.398774781636176,7.993137084736677,11.141576494813027,5.926383392340998,-0.10399593990279499,-13.052650280458302,-8.573528924404435,17.688338173761124,14.903705638163192,-2.69370622803023,14.547396535537729
-1.8645581405966958,15.276104793476403,-1.5206380195255358,0.5567977345811315,-16.252950937786576,-0.7459691315246211,2.989185425694787,13.59605861990401,2.450905524623014,7.566819732043333,-0.22199397618877192,2.6519750874378616,-9.594672202274264,-7.577386983842198,-0.07045971314006039,16.82884287550259,-14.05518419566252,6.433064868660057
0.6089119880511014,10.432073338994332,2.1969838037740663,-2.4552400823270943,-17.696050382064183,4.785489653106005,-0.029350597990712046,7.010065945394608,4.7203233283788215,-0.5013414033087784,-3.5367631606009775,10.100510284001636,0.4996360429384126,-7.5601128393403005,-14.016505546302113,15.147136961106948,-30.594194559798638,1.8377530798546307
-2.5821115891749225,17.992791960720805,18.123069156955808,-7.6143274133313845,-16.50328475390548,-0.8176896392433877,20.687449117809834,4.625321724536807,11.676327214937402,11.253930242827114,2.72052273032334,0.2686419270589653,5.706614455885816,-6.959222556404214,-6.57137714102846,15.81578169070066,-11.782776364584349,-1.3869166581979595
-4.3085756147799685,22.235472976027474,27.019031593596832,-5.545328142886802,-19.315367555857247,-6.129548233165375,26.85773681409912,12.496616613875974,9.06087209712787,18.61357564637386,17.47569084261193,-5.74953777418132,-1.1027954526580785,-16.517104349369458,18.065669161489268,13.463668279445612,0.48390199863871075,20.099345636301816
-1.5430515494717083,26.968875097252052,25.466838159022878,-0.34987547778678874,-21.151737709105543,-6.07187942399316,29.321504679410513,26.71764964521813,4.9795358618469585,23.335495293533565,21.49022810845743,0.7375269651516412,-3.7174491016600264,-18.948371871918788,27.47228763818665,24.009070526875853,-6.684975691334624,34.36254662804005
5.616841800015122,30.14229086736085,14.833684775528551,4.554000419105659,-24.063187903718458,-3.9650411233643377,25.441973388523657,41.331305154352876,10.369971256550812,16.53289659362062,22.772130398299495,5.471819613510863,-3.7975652051433038,-14.546028832125533,18.523452119537033,38.56519143347818,-14.148483525202675,39.1566435560439
8.870235764130744,21.111129812603107,7.717407116901594,2.427905128574764,-31.760688878999808,4.585571260300713,28.793545077427325,27.137923151991856,10.974134385494192,14.221711257957605,9.797844984683527,5.13298719404505,-4.175252235249566,-11.025063991182819,8.211628412548706,35.74503842455531,-12.922097189000004,23.153421373213607
5.287437660354678,24.094612686298063,6.266462327395558,4.990756071247697,-35.35735935604589,2.6851759963391366,41.91529382317016,26.91159594557125,19.19454464143658,11.421457406919846,7.470155636000204,2.5531110609081793,-5.436487544675796,-4.772165033210891,16.263696555891713,30.09966243098011,-11.013735761479992,10.962710930865896
7.271020258697757,33.52634738454832,13.117595950592161,0.5236120336405037,-39.15010943290041,2.2480257184470718,50.549158960629825,30.300603014307054,29.56235512254299,13.796347350988045,14.519571185382166,-3.4396980314669285,-5.530486434213291,-6.920335161813588,30.86308403488374,25.535415821576155,-12.232032093915068,20.260641044629136
4.762276320587098,37.00389777217652,11.766636197329076,-4.528129486449668,-38.548991318318855,-0.8274953035420705,48.542668810197554,31.054846730164904,34.65556419835959,11.873644173422884,9.559105420266496,-7.083632988439657,2.0857948808514806,-6.238951829145899,21.638245227357977,22.73594063938649,-10.424526134430561,11.007613614469026
1.960528865101523,27.69131657967925,-0.13021662898590058,0.9684996276273647,-36.58135742791227,-8.396873761791834,38.630202599844274,27.61179880474449,30.958479845921865,-0.30370992100318517,2.9405370995862414,-3.105178581117613,9.990346354571223,-17.083717127720732,4.507400867310377,23.849740120671406,-13.892099957861031,6.153270432692121
0.135368879811554,25.315559439003774,-5.287556644622121,19.259612279018373,-36.46987215434152,-14.307660646262374,39.17137454534979,29.444253410764176,30.873621620391106,-0.5673431063275218,1.9882544700019924,7.128450969109927,16.718283068356662,-20.899671432596293,-11.447272574855802,33.46675609455225,-18.04481052460668,-9.439267860190348
-1.2014518213396146,29.48608500995538,-4.486660037649591,13.62588224186248,-36.55430940906528,-16.411373286432344,35.810452501986994,16.337049563005817,25.611779342466825,2.586586487480226,7.19060340795556,2.034886154888884,18.656252769795294,-29.503408999039074,-9.038008631915158,19.066984230600017,-18.48802685973062,-4.910087514119969
4.200202770800911,33.75756947954626,-12.180886719734897,-3.530174185080167,-25.799296613026243,-9.922769028163646,42.02415688022333,4.794334437641629,32.75133249297035,7.790936195685152,-8.308238000788247,-9.987319342373304,25.179385566500912,-22.48446652459842,-0.6673385129181248,9.068845147635802,-26.84298395911147,-10.337707118937548
7.258203566252096,28.950269652394788,-14.502852025088387,-18.43883305611193,-18.65812797105332,-4.607607506924719,35.546471853577714,16.496113337444513,33.83495421768282,-4.5834336293734035,-12.281159428862871,-13.703573022039063,22.12729908973398,-27.479985538850528,14.153025877281753,19.976510284823345,-32.26963318220009,0.35255282421118395
-3.551021948400713,20.142469666963283,-11.35491267046745,-9.322436397606237,-28.99814790666943,-5.055787151175826,32.78384339108858,20.484867563597632,28.0813683638373,-15.102566168394924,-12.7360400191617,-4.328663525831711,12.527376111988076,-35.310136223630515,16.965768672106496,25.031767336320534,-35.64685131275318,1.5744247905100952
-9.867777746172612,22.178224887651005,-15.920878016839719,3.994475852735099,-34.65099144974688,-6.579720110174775,23.872782119850392,10.315169162567397,15.392902662729888,-16.832694940005844,-3.618044859329302,5.4418821139383695,6.731332777115803,-49.490591670167824,15.876476967706283,19.840021647784805,-41.66216362544552,11.394648606887978
-6.711478163041249,25.584810540787082,-16.970122340833456,6.667907941929696,-41.28074635118866,-2.6363205197794093,26.293962723832188,4.444311926919893,11.98072712512562,-7.234651381812777,-3.189116849876271,7.014159085364188,3.0789860410180587,-49.31790212003226,8.346041851732268,24.71408200700822,-53.538225943116544,17.70371990667012
2.597554567002078,33.97563613769699,-14.502659953467326,3.1900961506841643,-41.07472907441477,5.504879207342697,20.808746482252925,10.001289847119642,18.528430734689476,-4.863338428851255,6.129191225937131,5.466343370098688,7.234486210323297,-48.464139069977655,10.58563820967073,25.88420111222583,-49.1066783355986,24.700974436229643
2.336465202872926,29.870036381350978,-10.56931759835401,-0.5795153437876444,-34.618818664089716,11.496145088319292,12.006980231137359,13.11868088368151,18.434182108538486,-7.667875491486303,5.684304483006823,4.607057541980939,2.107732972759697,-41.167480486454544,17.71236677567513,23.350368277009395,-42.918467890202045,23.890239236629018
1.3921489849463957,23.717456677154257,-10.345969567743689,-0.14869114272739736,-25.819254344680935,6.548300536443079,8.677790676023982,11.159701261027184,17.264456500076605,-16.331798367936127,5.730338610128364,7.951948209318074,-4.976936121349908,-32.799083510258725,17.030706821680145,21.311850938682618,-43.567416323386766,20.252107007367652
-2.969769980775516,27.92049422335917,-18.813174515354227,-2.158178590223107,-27.07849584172936,-0.06114822623577343,12.090655660130317,0.02269929955224015,12.38247860617948,-10.932859372287098,-6.037529179528732,8.567281082599775,-13.43356476816783,-31.07388789508307,9.224245800585969,20.25691775432283,-38.55327032189076,11.638152948130447
4.583014255379369,32.518120690121805,-26.693460856806,2.5718285548413338,-25.310329914833368,-2.863345975265738,16.874323913683835,1.290007226465658,14.237609911529109,-5.826677315793056,-2.6657106360872174,7.234280683844656,-20.52772356248514,-33.55042532970223,10.992438366137371,33.07636577604059,-41.255074622024765,11.232215006387205
10.671431936295232,34.483004240941064,-21.291335908657235,-4.220688713025394,-18.170892056965435,-0.4910617183830128,-0.7021136719699648,7.148975791416367,20.876678509979023,4.553308244631355,-6.02948807336054,0.24191287426078034,-21.181194523480688,-31.537129111386196,17.25706097839007,23.24617100051476,-32.82481670885692,13.663158068920104
5.822722780899361,24.049425899308016,-18.329709161234025,-14.430159779870483,-18.355607174133482,-2.514730518990322,-0.9896954549366157,-0.5647663514006744,23.217497073068444,0.38264555445820747,-24.625033895876896,-1.8628289925898471,-23.108920824950427,-22.69018269892925,15.322584265920735,8.051719758437688,-30.352529523744714,0.4737074325750399
-5.373159064098412,15.57312542522855,-14.781203783685742,-12.236052729768716,-26.54799568563671,-1.9029707908575495,1.9487806258833373,-8.47214206795486,11.201300483395004,-7.986875228069033,-23.002537932137233,2.9708225244441984,-24.943673016740377,-24.880918894348483,15.54070347438892,-0.6904394819260133,-27.88101651930963,1.1565364165970955
-1.2361551015108545,21.261369216815332,-17.286559001058635,-8.771372046292466,-21.165610932942254,-6.468376637047845,9.089806204813907,-1.7292096510471602,11.87926449732001,-2.7814755133345104,-19.13097435223414,4.000468436159615,-23.46272181212652,-17.89414906832466,7.852644152827105,13.230835711340632,-21.894521942021257,-8.605098834672596
2.022589797275382,25.19599143778889,-20.376954044131864,-8.919026919468326,-19.396126894582622,4.10188779649584,-5.738981153770119,0.816050785691349,7.087030820302477,0.6666495326086403,-11.740743007390083,1.909662925901138,-23.158296643496918,-14.425340335141197,0.36396955971743594,17.002497952695208,-20.49855851827369,2.6346251122804816
2.6452760860048867,21.32225494072346,-14.87257380599628,-8.479756738230577,-12.157283386533397,5.295756422032703,-11.482510378223914,-2.9848687250944828,11.668556973730379,-7.89649264767992,-6.886574754792081,3.7297109112018454,-22.6631598102724,-11.837692022956446,-3.6049882157752826,16.77693398112535,-28.86890429263513,3.9182334404558112
0.6319433047360341,14.132455461887965,-8.000103319054794,-16.34043806064954,-9.214762143732212,3.3633520620447177,-18.68790981280099,-2.3896558150212943,9.119665561594905,-15.287036887699335,-4.470763329261988,1.0619920422455884,-23.442145383645798,-15.892966630520235,2.684121973384727,9.722014331212147,-30.989605346228473,12.335857207498211
-2.943134121774018,10.462671468081773,-14.212900193989334,-17.950089762894688,-7.638736896457019,-3.5507941412534834,-10.655800323309435,-1.1093449643719477,10.963950295315218,-15.157159771853182,-22.559942651524846,2.109699517446952,-20.41701619071958,-4.911099302627534,-3.815961258927249,6.189400426823479,-26.958232659526203,-4.632506764843335
1.881172306615397,9.238701464762258,-23.159255869473995,-16.824412561665806,-1.667305268560277,-3.2394357290977385,-12.777290701344725,-4.319838009546206,4.505885042007,-11.999047014674737,-28.3410645660616,6.970431878928647,-15.247916515831422,-6.431523948472069,-7.773009158875386,7.448579914571418,-23.024792753725364,-8.216713569755907
2.897683780961803,10.460576114935416,-19.506916878685153,-19.604154739460608,4.598004858134203,4.297456962099059,-11.478053257493194,-8.603156855154609,6.054292224789192,-1.222714508495323,-30.01733233060194,-0.5670571079778313,-10.180934518961479,6.987635374753513,-14.36292008056597,6.3704709323014725,-21.43532285786371,-15.897478807046383
1.0830160932474548,-0.32502241415500777,-9.505990188763086,-18.08608792913204,4.809538927039032,11.540268313052259,-20.332613806688634,-9.662404892072178,7.698874473604981,-11.148836621811473,-15.479139831823455,-7.9049824588087745,-5.704316523700289,3.802981606436152,-13.62464428047197,1.8807677390093218,-16.232608230173028,-11.365942145833063
-2.488557562323835,-1.1450778078648476,-5.1683893237458385,-22.03600777453529,0.2369473127948325,8.723255374911469,-12.97348410705452,-8.962493275045464,5.435643813290995,-15.019122375110577,-15.390971743070535,-5.8635821636143,-11.193160747012397,6.0852189486680075,-11.417687488296172,3.549854592190286,-14.643227400983033,-11.028588331442737
-4.008347625446902,1.359705495610239,-5.712863767070372,-16.805274688316665,-5.311017313702596,13.522500858170822,-0.24077648687885045,-16.952846297017125,0.3388145747301703,-13.51710590112777,-20.865928620476854,8.87743936161771,-17.076961416843986,5.924127193741597,0.2658421460154248,1.9048528376033111,-12.272486334423263,-7.658731100020901
-5.429471581642346,6.3104268670782915,-9.186270069564097,-12.452657123974468,-7.830285896009286,19.10199536720296,2.5331391816996796,-19.37548099302684,-3.490009117337907,-6.642717329969818,-18.72017113080603,8.09492566997979,-17.59386228393645,13.378512019633398,4.8240844859355505,-6.179366561821169,-4.530374185430112,-7.604112148690538
-9.095678274862504,5.308536860801123,-3.772033010367964,-9.564122513516118,-8.199675626837173,19.309334346919023,-13.831670764601768,-9.003772639745833,-4.585982240808697,-10.314098660363243,-2.801217949292184,0.5780019124891353,-18.31030267459471,16.729504642161015,-3.309497394288357,-6.835489257598148,-8.213924034295466,-1.4895790733929566
-13.639722842783195,-4.9663142737799575,-1.1890927591757476,-7.553745169093497,-12.278547836524211,16.195364067333454,-13.983211829394829,-12.986621951827669,-12.71489997670621,-20.527213178884452,6.67582164750484,-0.7825835367741902,-21.081725574620855,10.117702164833211,-8.021423488568804,-4.067570652110497,-21.662855076344016,0.7237859399711688
-9.491110692941957,-3.029413049545724,-7.101609650211584,-6.03091463767068,-14.500307799545164,8.490568284632943,-2.120875541124775,-15.796498073010063,-14.888304109764874,-17.848101559040664,1.9960283088860757,5.087329329523882,-25.90807476105544,9.16840589407208,-4.233539759851201,-2.9539045022653845,-23.099391208141647,-4.772663690762922
-6.220264766048854,9.459066884997455,-14.86886885051489,-7.046463719187703,-13.2046700881921,5.081836381407653,-2.95218005256139,-15.480296859788773,-12.961712952261227,-1.8860641857777969,-9.711541676013635,5.882788363275079,-25.46496142774413,9.97537037660998,-5.520321825829832,-5.545397742222683,-7.347571490978396,-5.185760732477313
-10.858507251765387,11.698032126431281,-17.65484017554182,-12.35825173945738,-15.715861214180295,-1.1598109864167703,-3.5864146865515174,-12.135727511695013,-12.306323460523338,1.7726392361083665,-22.001437109977903,3.361554294038104,-23.658634889791653,11.562083529700274,-17.448311856932726,-3.0529511818706716,4.30331792047842,-26.101831818907712
-18.815889784554113,11.695419960058064,-13.7016960968724,-14.93494115657288,-18.322783057444376,-5.546765943773158,-9.101894004789905,-16.407535933132756,-11.652606235837816,0.843037885142782,-17.97882956220618,-6.968709165059373,-20.977321645952372,5.8230193073907195,-20.29069852909845,-13.933978071530323,7.06814926151597,-29.043728030188184
-20.228946583701095,15.79898347333198,-7.599362406853361,-13.897631802605991,-13.798659017245376,-13.1571939599456,-11.979085075174567,-2.9047626600334207,-7.289588328588168,-2.5263308146094383,-7.409454673361819,-8.701583503286033,-14.97951416779982,2.9146500393396586,-21.371865697710856,-8.402970886277064,-0.42018420079012486,-25.632723102990152
