Fp1||F7,F7||T7,T7||P7,P7||O1,Fp2||F8,F8||T8,T8||P8,P8||O2,Fp1||F3,F3||C3,C3||P3,P3||O1,Fp2||F4,F4||C4,C4||P4,P4||O2,Fz||Cz,Cz||Pz
-3.703455404230679,-2.4202424920362864,-3.672416845490697,-0.2761797079904964,2.4954142547782476,1.9017309702095946,-1.3846003963577864,1.1419395500045058,-7.80588285478634,-1.134276953054858,2.8797640912023876,-4.011898733202797,2.539945341146268,1.3623030358858692,3.006573510898864,-2.7543375091641913,1.82309397569923,-2.6536668664742393
-17.35754349716052,-9.007512484501527,8.774060045636404,-7.908973359349858,6.557131141126449,-6.432130902316199,2.989358977500233,7.74014140831628,6.72106842967678,-22.09328757941519,8.885731295084264,-19.013481440812562,22.200217321010996,-4.57679354680133,5.495363178933497,-12.264286328381994,4.813450984587595,16.919214607330623
-10.797289670925107,-0.3618641630823489,2.37122194816634,-8.413248602825783,-0.22145907221651662,-7.638756556296537,-2.012430883705454,4.768142888858259,7.578797845326996,-14.444794189694356,10.105906375350836,-20.441090519739284,10.904121410868274,-1.3397195922771523,-12.914616799395077,-1.7542886424197146,3.894457044362532,7.4866583482001765
-12.538829358452759,-13.983881627522155,-2.763466264761205,-5.500031881911774,-2.508148719789828,-9.433130074581854,-5.452399774633925,4.042572616020755,3.068339306540988,-27.01787342283034,2.2433208582529804,-13.079995874698064,9.570336304155674,-9.044129889342493,-12.867405525865859,-1.009906841793418,1.1169331134238427,2.935699606497245
3.492379091355191,-0.36110183589690514,-6.630033325868382,-7.470263235049636,6.142415307051473,-11.229326987884658,-15.045605796774819,7.711942702424897,28.34660424489556,-26.51143994352367,0.6302121709205029,-13.434395777836215,15.855160618452718,-17.63143610016658,-16.53141851947558,5.8871192261472896,0.6801712112772953,-5.327742644355492
1.6511859713448649,9.54896106790646,-8.64256061722392,-7.585590497262622,1.608713290295773,-5.117091636587428,-12.82312124738528,0.2487140197411004,35.463766034398645,-28.648591195767303,0.3836657010433937,-12.22684461499148,21.262454021909036,-27.00413776260747,-15.70351413586853,5.362412302774327,-1.8104169899420497,-13.202242335929078
-10.054548112564962,-5.83606330841055,-15.930090035439704,-3.99054825954755,3.422235232111245,3.1417487371527772,-13.824334356421094,-6.823458854449652,10.74786346290459,-32.648263521819786,-0.7424739734000418,-13.168375683726353,26.86653327227964,-30.22869079391529,-15.754976522557307,5.033324802731691,-4.206350436785289,-19.516104533201336
-9.456589702657274,2.8009746911727875,-17.750296030030285,3.607805323330921,7.285982460687469,3.097796118312176,-16.975105912507072,-6.082546776975804,27.05169153531459,-41.928672829637414,-6.654543612639973,0.7334191887029422,29.54243073764009,-39.12183521854793,-7.213113134438068,4.118643505010446,-4.652120497042793,-23.87889495885861
-19.113949733263663,8.115899430566975,-23.771319694825003,0.5607781601302115,-2.8159725500669266,-17.065555081123993,-6.0643465829840295,-1.434818845343216,18.065763846722724,-44.67342406984095,-3.094540029360222,-4.506391584986079,23.04012942276791,-47.14065373229174,-11.269761537642388,7.989592787798095,-8.323575022550497,-31.27135358986454
5.993517687375064,-23.094928408106988,-15.438214138924202,-0.045523310513593485,0.7534525214387431,-1.7810689297588271,-26.893631545279113,5.947872145665185,33.40032966416803,-56.31262796830957,-7.445567522388728,-2.227282343709505,34.11792671075977,-47.25393797153303,-17.280335622737326,8.442971075728913,-5.064295851405673,-41.59601627676109
-10.209638614715512,5.361358277496231,-10.524710682390154,1.8865282675824104,9.302660714614918,-4.174573413190974,-25.751298222042944,7.7646579127109145,79.79388830501804,-79.97151605106798,-9.746562796528808,-3.562272209515324,43.53732248685094,-42.97751298117751,-19.58079354182029,6.1624310283934065,-5.518962654475365,-45.0873007768311
-34.42220009710553,20.339105934487527,-18.503631580656414,-0.8697698780780803,-2.9500493616161965,1.7308738858271,-21.29006885393411,7.238283013107544,21.99058274657863,-44.360117707743235,-5.5052956140824,-5.581665046169446,31.083237245041833,-34.3115224762412,-14.460247671813086,2.4175715865536893,4.765784933478834,-41.06179268744957
-19.67086378469883,-6.677750992173148,-12.909749536752487,-5.677688358366097,-2.8011039158390503,1.677227369431509,-16.92805752781897,9.935277235219266,0.32469631873552185,-31.608767739511443,2.446134176233992,-16.098115427509384,20.974861162429566,-19.888898976015664,-10.02439627937926,0.8217772541172623,8.895173516117044,-38.40653398175352
-23.964396489166095,3.6088678192883368,-8.78237560623958,-0.23238107695077703,-1.9694894366500755,-0.5268756813246589,-9.83328220709264,8.238374881221738,16.358861162491543,-36.54177673326546,-0.833932595160892,-8.353437187190789,12.333343037466854,-7.32708411854682,-0.5115377787251054,-8.585993583879201,9.017689849380863,-35.46152838396111
-18.49383313133268,-11.985599398395138,-6.902789555812439,-0.15911515816294663,-5.728781334303278,-3.2212672842101417,-6.939534056437024,2.831217564186924,21.752601630797486,-48.22164390498019,-3.138302851480252,-7.933992118094418,10.139293837600226,-4.341174174619989,-6.136928625503085,-12.719556148077112,3.3755119116345385,-36.426241565518886
-19.86105684926536,-13.030851341066652,-4.634248999307809,-0.5750318129370375,-16.618138021095497,-1.4254152770212307,-4.535909698314563,-0.8173244686726083,35.842253294512595,-57.46870292714713,-7.006101758197582,-9.46863761179555,7.556735662658551,-6.146071441113902,-7.564439602953161,-17.243012083529663,1.246143148939722,-38.761752528500146
-6.874404364805564,-14.663840049527405,-8.422180118227997,-4.214575473969291,-7.293449108838912,-4.709789732113482,1.1861529040120025,-3.9767657027838945,41.92844279756627,-55.3962556725721,-7.7497811612714465,-12.957405970300305,18.4531291430552,-2.878472365548729,-10.848952934975394,-19.519555482087526,3.996810893510067,-38.4642714425941
2.301719337730998,-11.708706813400443,-0.49288825880206577,-5.218308908110827,-10.372456294280475,-15.320529134847481,7.101517206876932,-3.1313920495135954,45.187127647185044,-48.645179532131884,-4.9787328937588695,-6.681399863920346,11.968687481384325,-8.698873983061134,-13.93975734059309,-11.052916429324847,9.674380156700574,-37.487127773286936
4.542202296741733,-9.048339348546499,0.2080122356206191,2.3708634157220576,0.7076896505690897,-14.214383514153575,13.405410850513597,4.257932455992941,35.169023895552144,-39.07111733321183,2.5765714801770465,-0.6017394430194316,20.13520602269169,-11.497837621714476,-11.465777224604851,6.985058266721511,10.270936912494294,-31.924183610910546
-8.649242089606732,-7.659314954153766,-2.8038114380444146,13.670028454672527,5.1458344252346215,-16.04002211272351,21.074324465549882,1.7847414393209733,23.104862776150654,-39.76034660107182,-1.78336315406349,12.99650695181612,24.007137192824654,-18.599811165675973,-10.263153285751892,16.82070547615883,2.9544282219989784,-26.658494585470645
-5.338594912805703,-9.78776073955741,-5.817375281688685,7.682746647964626,-0.9643867508679915,-19.430243630799783,16.240773302500592,1.8516010845825552,25.401232532004926,-43.09569842250393,-2.140346042923944,6.573827647303583,21.24074661832774,-31.46977423940577,-13.26171532242365,21.18848694909242,-4.85313526933094,-31.944288863530026
-9.94035220652953,-12.30862729645607,-10.981158372532455,3.5499102610808486,-6.294730684271674,-23.31081880698998,5.1547682559070145,-0.5220009811936944,25.456401940588464,-50.63982582697545,-9.33440654288021,4.837602814801861,26.87537499551111,-46.982788712685405,-20.168586344859563,15.303217845662498,-13.054072545395975,-39.57847846325052
-9.075463428538654,-8.28821254485182,-13.607596633775472,-7.224728245032314,-10.845251488771709,-18.892555708198618,0.4140745624030514,-3.7735093836399836,24.44234511158814,-49.40437284086049,-8.228614419669302,-5.005358703280582,28.6061930595297,-49.70903711766552,-20.534482959295037,8.540084999402032,-16.081868249599815,-39.50247499386255
-1.181463428386408,-2.5117424209427366,-23.853101135587117,-3.7424359460225602,-0.7486035935157662,-11.156002545607215,1.3350060932159789,-3.7036106360231047,25.581845255795187,-43.491082210109624,-14.155253623657192,0.7757476470130755,41.08190505950266,-41.11348684533767,-18.265808080051045,4.0241791841357255,-7.8817174212316585,-38.064186984794986
16.96429571302968,1.7980817739465627,-22.088470844179874,-11.003617073900804,-8.915498334122294,-9.280989130692575,0.6908094858718877,1.44556434396153,28.191372473390217,-27.528890010295846,-12.563338860664002,-2.428854033550248,24.165220226081892,-33.50111016062745,-11.89778736249643,5.1735636622415155,-2.3209931758267293,-30.283221617308755
8.056500963814385,7.96162811114295,-27.845257155765044,-13.480712967434368,-3.9978533809893415,-5.55255499857962,2.09474195182361,6.302868677572068,16.841074540806364,-26.225310340539636,-10.97253332458558,-4.951071923934315,24.048287242424216,-20.133615632982142,-6.606371185084903,1.5389018256516334,1.479251050484768,-19.480090431587538
8.033145623469707,8.361598539867535,-23.93569980894072,-16.154289633636324,0.136880597580344,-5.146560146620391,-5.195625616128698,2.4697645806604203,15.359507155245032,-26.982594574115556,-6.843752172939173,-5.228405687436739,20.41833090390248,-18.49182693958253,-6.102642166312811,-3.5594023823323604,-1.7544748841223892,-8.682328141225794
9.472187619215257,11.298907415919603,-29.989005214598926,-13.555534100599738,5.344149813484065,-3.2777738402033685,-12.098199531890826,0.39565712478922843,24.235022458482845,-31.36336036534752,-9.06386534115952,-6.581241032041724,21.478633256394424,-17.540503119104894,-7.847585849127452,-5.726710721798947,-7.041597480146198,-5.800352813456691
20.186193613457153,8.960942727877041,-31.0635384252872,-18.184656777511243,5.764439756305444,-4.829080380461214,-19.29665851517413,6.428325275186156,36.43632289679253,-38.781749006558904,-4.74206588139984,-13.013566870295547,20.393181482911743,-13.861702357302622,-15.259308171528,-3.205144818039998,-9.694515528561432,-8.39285836474986
11.659052236871137,7.402492313266523,-31.26092248818412,-11.584363627830097,-4.364105564768847,-0.9136214718773834,-21.419899727344472,6.114448298266706,28.81858005081488,-42.20648482854921,-6.769189398088055,-3.626647390046985,6.907938973489012,1.9196439537911516,-26.58005304584731,-2.8307083469712486,-8.931936493473493,-10.405198590499234
6.937940242352372,5.744645204528695,-31.850704677002255,-11.235408150427332,-2.7755699099716287,9.24986998480985,-22.86259261481455,3.9463059701722965,20.132132245542603,-40.27043495154661,-4.891186227928952,-5.374038446603601,5.046733016440946,12.90867702823672,-29.99331530937501,-0.40408130492045224,-5.6327484876887235,-12.521107581878844
5.925151330585699,6.428854341048929,-30.879725561045504,-11.083027624220588,4.377561422441349,11.89165904120373,-18.35128856597597,-0.0760790836063241,15.259914904581976,-31.99709129944192,-7.994922911039421,-4.876648207715347,9.438408228971033,7.972349508024976,-18.370159446523132,-1.1987454762233263,-2.0430470526963056,-15.131342399939074
2.8588316692362836,3.888638712165422,-30.30113407175181,-11.224896102483065,2.5442383563762094,8.574277181852509,-19.99561487856166,-6.148000848226843,11.565213638497244,-31.937520311479005,-13.541309519872078,-0.8649435999577797,10.61018125679426,-3.123624759295261,-21.49627380061422,-1.0153828852573716,-0.799557759268902,-23.11891230882509
22.446343780618616,9.74528031354642,-23.864827768684073,-12.637606440063578,2.759739637951336,-5.292180506943578,-16.36968159486713,-6.261504293096367,31.99763813601253,-20.853204170482517,-9.909085416464126,-5.546158663622118,6.120623155538027,-6.902532927994207,-28.922355835382085,4.540638851070038,2.5900097800624087,-22.616536592050785
14.100934009329842,10.912653629525252,-22.313149845171914,-12.098467803392676,-2.4956256752721346,-3.6330873038579194,-13.137701357253029,-1.979094102791859,25.872858171189566,-17.396822070500694,-11.746921178508995,-6.1271449318581315,6.712097026868397,-7.3683927063596695,-32.24991359148849,11.660700831992548,-0.07755934097934247,-22.608841824616853
10.537902547924881,10.80879197510077,-15.489686010398243,-12.63488386511072,7.383881604518885,-1.5853815927800508,-5.612164390840581,-3.2618418217371756,28.152377762509182,-17.857424563130888,-11.535179488535288,-5.5376490632902104,18.244076102029226,-17.412071166642246,-16.635042276150447,12.72753114011241,-6.849074133921656,-16.65052771587093
4.432877684491275,5.722714387553883,-20.09389947871827,-5.750644101169424,14.917483014153843,4.854916545104995,0.2497474015349006,-4.4455818073021165,22.33206801566258,-22.03973471150482,-14.156755143552537,-1.8245296684067744,24.310066008327027,-20.920081514573734,1.3203725757292055,10.866208084197078,-7.568092522412183,-11.18711173168942
7.309433152179429,4.150658181193292,-18.352070228618363,-8.828838268925416,4.4798981899178285,-2.0858877850490654,-0.7278839320232393,-2.600566404014889,26.478636189318305,-23.205400877642344,-11.310747141696602,-7.683305334104558,19.14826320964789,-32.34580451979034,8.725441559311175,3.5376598198498836,-11.219088585631537,-9.343744217684815
-7.688347544104476,3.3582213231826947,-14.951757574082198,-6.146581370459611,6.4426434452819406,-11.470112638352445,-1.9043877258449902,7.839709735239553,9.048653704525243,-22.135711328432013,-11.005096209824886,-1.3363113316812143,22.680847005031872,-40.94691884586072,7.826227000644362,11.347697656696475,-17.606707923657307,-7.116556523676007
-6.477949357014615,3.736050244601855,-8.428082378300024,-2.782086218334662,1.762419691931013,-10.602235507115704,0.43117657260549436,4.90226791698861,7.738025907976091,-15.315007709358905,-9.333497911717537,2.9584120041084674,17.134106200004773,-37.25064858235221,12.978353016069388,3.63181804087529,-13.547115799524255,-5.579878513733419
7.717887773501522,8.116235671235906,-5.128783971553565,-6.157350560050967,3.6229832341308383,-8.466750953560034,0.2239776229915993,2.649834208275806,23.913975000501452,-10.555923501876407,-8.053795883960271,-0.7562667014714863,10.32065474250726,-26.04224264435037,16.076165507706172,-2.3245334938372118,-6.9505484576597665,-5.1244318928014785
1.6954994803824497,4.486892631728613,1.1962474568166073,-5.823004881325465,10.461772801422166,3.8232141455346405,-0.475221332659709,-0.5777628656215708,21.540804917630233,-11.276487900459372,-8.630859700696924,-0.07782262880653334,24.994738077976276,-18.454697789713077,10.967167204795288,-4.2752047441956105,-0.5513810393011029,-9.265982068603023
-2.47449583981011,2.3208398030158937,5.859455401952882,-6.56428632634932,-1.940367362155642,8.884602053517682,-6.744669901897796,-4.292225903692397,16.829706802484296,-7.1249828022113135,-8.03730206298056,-2.5259088984130917,16.62441598655125,-19.27325237667781,3.7060803874378045,-5.149905111352425,4.576193757300304,-15.953799277252944
-15.925109543135722,-3.069475625482008,6.614727358562703,-2.3264220950588124,9.874222171864298,6.229145311728908,-14.189814688736185,-3.220029672897776,3.335272348466269,-8.062494161053607,-6.370782546847954,-3.6082755456037914,27.49547656014309,-23.224392220302477,-2.289129602767076,-3.2884316149277835,7.2603263376958855,-15.324530559704506
-2.230031593989513,-6.996462562678405,15.766954514280314,-8.051052743951388,-0.48191878505314223,0.2514646990603424,-15.779341074575118,-3.1229750381940944,10.35482243534014,-1.1981908943146422,0.47032288807863587,-11.137546815363685,9.755611112893188,-22.495496569914575,-7.31148949052142,0.918604748966726,0.5673612661562588,-3.9602298238422406
-29.84736287331636,-13.366410185430917,16.90965278534444,-2.644111961718047,-0.39113729483666393,-3.0912939352166893,-18.739962235020236,1.1748025407046685,-21.09692281099082,-4.403424268712193,0.864742889746303,-4.312628045080088,0.12411133595227497,-18.453766917169467,-11.361050706524258,8.643115363557776,-10.717427266060646,10.717043844930615
-10.299213819709845,-13.976047013816324,25.375103881742533,-3.683997793308688,0.8690504595842476,-1.064688939831008,-20.727930521385844,4.6927611107660265,-3.0303479861506695,-0.5880688379899723,4.968882905481195,-3.9346208263442524,-9.309320856113949,-16.568024504855032,-4.086142138866451,13.7326796091533,-8.820284835016858,13.570273861787577
-14.87575565590378,-13.90355333353733,30.81160402778751,-0.8189938841093518,-5.002292860015338,3.4015736338044995,-22.817516877955782,4.501169714131667,-11.813817932025188,8.392404948457745,7.118595206699295,-2.483881068801728,-18.154078117695853,-23.38132038316305,2.1106559730374723,19.507676137969995,-2.432703816540506,11.533096877934415
-11.15463745367521,-11.781697676545901,26.18781270972336,3.216479642002369,-7.165186036519346,-0.33717251256190295,-21.688391613675055,7.924358531116385,-4.477942596639952,4.569005157242785,6.727935257141079,-0.35104059614187655,-24.75000490957393,-21.901184899632263,-1.3645826319971128,26.749380809745833,-0.1485180858459767,7.7305016380352605
-11.53840884794811,-11.80973884958338,27.421958375156414,-1.6363271694275285,-0.8344262088295387,-0.07368126183498269,-20.075002584238923,12.91151308437594,-2.1168129799593025,1.8091687270036019,10.828262935912578,-8.083135174657837,-3.510801735925927,-22.186337100352397,-9.921987172783016,27.54752903871509,3.012865103006167,0.40459383500220625
-10.558250833557933,-11.64386615127286,24.65062604108161,-0.9240708386379124,-3.686089171431104,-14.069920198616197,-21.297741736203626,15.653977943101683,2.886852031378936,-3.59805509330657,3.501369854793124,-1.265728575146814,5.816800416533914,-28.826657277578825,-27.27259264618761,26.882676344263206,2.7545539052220995,-6.831341177036812
-20.1284199240037,-14.409101406252091,24.416900977124996,3.204776929414443,-9.567760505692691,-21.720075112090747,-17.64167402701514,18.690849129828308,-3.920319175899035,-6.867388178084518,3.7905192429163383,0.08134468746066315,8.408628740256155,-28.63831173101378,-33.68957427317259,23.680596749138434,2.982907350604311,-11.731222452656574
-21.205666754065096,-14.929557605334882,23.791067517782405,1.8633609786534127,-14.280178934600382,-26.344476908000402,-12.134213477043321,13.330580873349902,1.9737366767731679,-12.881663241485317,2.222914840364515,-1.795784138502805,9.538165926643668,-26.699458903151637,-36.39964140454356,14.132645934934274,5.748788090063783,-22.400685548207356
-18.184597311617516,-17.892778573874146,26.288820659649446,7.45421410145345,-4.541911646399846,-18.763264542215595,-0.5760989892628405,6.213890907560786,3.576539916883256,-8.457025689243704,4.658026205578757,-2.111881557489556,21.900880720338066,-16.95526962729869,-28.273813441275227,5.660818078093695,11.149904636935638,-19.21056386933291
-21.90522613166838,-14.997827784851948,32.49612296814018,8.160750114075658,-1.9353373181306976,-15.968850125085552,8.145795693245613,2.9072601123910427,0.9857120356526003,-3.9451309705316504,6.212972084261718,0.5002660164340424,21.961218122751898,-11.319933724486578,-25.132676573055004,7.6402605373837655,16.744864908587136,-15.93063400228021
-17.914210733604616,-12.10414012636763,29.424510867990612,13.74874396279823,4.770167837751771,-7.121188638528595,9.539197461463289,7.0240128394561125,13.537446002825037,-6.5725815745915845,9.32920232189648,-3.139162779188572,31.789785676902902,-2.566718791309377,-22.093373948560757,7.082496563281765,18.236780391420282,-14.611739777764585
-17.735165180796933,-8.625738744594118,23.9100417423372,19.725941075397508,-2.49209261904662,1.236688361713373,10.14716015874028,6.454575541236732,17.793841310890635,-7.6477631288414045,5.11986948510428,2.009131225318386,28.2416551908007,1.003532006337835,-13.589442422641733,-0.30941333168286,18.164804999681742,-10.175706069388117
-34.258909556643246,-9.933768056795973,26.69508226790089,17.693777800466492,8.016634191235042,6.077429114840589,9.383724904779827,5.20290004646928,0.2780836838033309,-6.682306270974326,0.7139960897111068,5.886408952519737,30.262382479267025,3.492513566140957,-0.49982761061055214,-4.5743801773043575,17.407911673044154,-7.993732034083145
-23.051168136632995,-6.164764159260969,23.033328617156478,11.656223998133983,13.444426295562344,12.674590899301425,3.049598732187654,-2.004548884601464,11.967464110212129,-8.36369676388271,1.971054586699415,-0.10120161349725088,28.86740774800336,4.41201201731851,0.28065754978600665,-6.396010272491489,17.528678133300648,-5.624393724585062
-9.307631569279348,-5.033655534250453,20.639756856284908,5.812565513648352,-0.6620707060412139,11.164782376906281,-6.804413666085596,1.238710056262426,22.197399633757982,-4.29327815041799,-2.4372442888562222,-3.3558419279418636,10.77522877708562,-2.097357248467162,-1.872865752569723,-1.8679977148423461,15.597426654229329,-12.735823098602959
-6.60271708609538,-3.2200452114591194,19.026092536778158,3.2878535497707393,-2.2711249488705643,9.360664258111514,-13.732907004610242,3.7996736885512274,22.569268901201273,-1.0140232354855883,-2.2568286905266954,-6.807233186052829,8.017532987364348,-17.10974465032335,3.6842762899438632,2.5642413663595907,12.688447454710634,-17.120814473370842
-28.901470548645214,-9.806068424991432,19.852531150412204,5.156327262122325,0.9022971925372798,9.996695830270637,-20.860932250333306,12.319045761149578,-0.6867282536498855,-6.143135049925256,-0.31976341755038806,-6.549053839831551,9.558942695620566,-25.390453129449078,7.96755368127608,10.221063286337149,6.750983673234668,-19.853611000633407
-23.761672207129966,-8.775820424980468,21.654220166678613,4.2889761288856905,-4.61857528790185,8.28769143702195,-25.063442726381613,16.445081457229996,3.4066866563350686,-1.9067993375483994,0.9325182164487433,-9.026701871633248,-0.9094393673391821,-27.232361483442205,7.656587285179626,15.535968445728772,5.9883417747605865,-19.85998175241338
-39.42623009515635,-10.87161651761859,19.74360130202555,6.740585040860952,-6.040579222856685,7.65171662570428,-26.63341039497295,15.68946592808689,-15.444287414963892,-2.269962601882085,-2.308624947159988,-3.7907853057309873,-1.317020127994411,-34.451957072797484,9.001458399032522,17.434711737877436,1.7090398025101827,-20.655605821759742
-13.29651491081189,-3.886202362422293,20.175467373510923,1.7688080795270658,-21.039764253293516,8.381790278354618,-22.64109954130421,15.813977905920723,3.9916847666122948,11.51777631927041,0.3085387617632822,-11.056441667687578,-16.664238703737873,-33.27939462518754,13.564678663151767,16.89385905560579,2.116385478248444,-13.45128331389411
-19.20175807571982,-4.3236985354674164,25.97722095749205,3.1433925975056116,-15.631233333847316,0.12623860999419279,-16.11389436490493,24.533549138699428,-8.403724958876566,20.706251027495547,-3.325538718373886,-3.3818304062770337,-11.892025382498005,-49.98449767195966,32.18624687208654,22.604936232465057,2.913496433933264,-5.47368002576982
-20.715600177429142,-0.3674803197704284,20.156427628299184,0.707940112370038,-16.1825706363328,-9.790560200541808,-13.790170979861294,39.21138913726128,-12.688574472086273,23.440088755329292,-6.374803370650894,-4.595423668961876,-8.387485521383109,-62.20353057251076,43.96739809042412,26.071705324145814,0.19412192426440633,-1.019725902124069
-16.17783511373815,-1.6856252088500172,20.877439164242183,-4.365649499812304,-18.006196747050012,-18.927113991208884,-13.033160264277111,51.644214451219156,-15.210693287762275,27.629695272583717,-4.249328718790784,-9.521343924025468,-14.842219443383101,-49.428250245221285,37.384512229622906,28.563700907813512,6.8491431847860325,6.648977350325431
0.5640014007305574,4.417412382089216,13.10097548275686,-1.0420441027467684,-26.570934976232614,-17.81057232866866,-15.79600473211902,55.77721015515388,0.9246284714285053,28.97826329538629,-5.738298212703656,-7.1242483911149845,-22.760066308503006,-37.92846672072935,32.555078784286366,23.733152363226687,11.843295809311869,11.868298582403028
-7.209372178859926,3.0976958713218163,12.64760220841245,-1.7237686834275605,-9.942691885135643,-24.702882008461938,-16.805172011775877,53.07520557976092,-2.1738942507833805,19.57565356364934,-2.247817095411206,-8.341784999838938,-7.433681435453723,-34.34477994794578,21.666475339692482,21.73644571823982,7.754652485243344,12.978077498583119
-11.470153643349372,8.515638017203463,11.314080755821893,-1.9185586712427118,-11.774462605461554,-23.39280660055988,-9.615234773220818,42.17095389082708,4.498002812181005,8.797151181505011,-0.5162553612542542,-6.337892173826781,-1.8714455101386989,-22.563532220474865,6.9648284856893365,14.858599156652645,-0.5338381166026149,14.665910374271022
3.6999014304578317,7.09685386424985,10.369973241600118,0.7173807381011188,-2.0853038898374416,-19.83741574810449,1.3792271932177833,29.900456769649324,25.237173041998613,-0.9156539812837821,1.800187266259381,-4.2375970523909805,11.114338341500801,-1.9009846905753491,-4.811477364947013,4.9550880390885315,2.505467094684613,10.388756786870474
-4.668577898795245,5.286795638794461,7.959794053634011,2.375407239704022,-4.313054018244534,-18.82188529711741,13.443817670247675,17.826196329113195,18.636644848442682,-6.53522133890508,2.4553977019151265,-3.6034021779386407,12.773317822900415,11.822447362975048,-11.02568109817536,-5.435009403561164,10.915509144803455,3.4670114444427433
4.440695832965961,0.5464038968043816,2.423373065450109,3.348504136712479,-4.1020034962324,-22.104000261529354,23.160538204436683,8.975519247364723,24.73599937494958,-12.065363358531652,4.281465759313285,-6.193124843619009,18.047060257630864,13.626361643365172,-15.779403870026606,-9.963964336791555,13.954000579389584,-0.8257728043409038
-7.742361771434277,4.5946496472822,-0.379813801675839,5.980467800185673,-1.0614973177687554,-13.374862874048969,23.69337133692897,0.516306328069053,17.362867456877805,-15.748081640081269,-0.9248429850262299,1.762999042769069,30.158203498143877,8.19847582248314,-18.09606253775701,-10.487299309553304,9.765509106082881,-5.126316761112506
45.30704726719281,-40.967753156459885,-7.0904812540464945,3.7282407767866275,8.226511828785119,-9.040917494925692,18.16739095954216,-8.137434993152468,33.13880439753665,-30.083403683923006,-4.471973524507792,2.3936264445510567,37.29009283741456,9.211023229371747,-23.346825246091925,-13.938740520310734,6.358035020369898,-13.04791536391504
-16.29659244596137,27.826584070295873,-11.751495356098975,-2.626903344191834,-4.949322879937542,-14.961571770877008,9.12172634072936,-15.03259735130159,26.555203659559606,-27.238706195161907,-2.0629687849803524,-0.10193575518764675,12.391465609488733,2.601442429484557,-24.20735209335304,-16.60732160687442,0.8995703227964107,-20.09826789046976
-7.784792954240869,11.072310460318832,-19.929335291320196,1.5637086632260115,-7.580654119575187,-16.781080405110146,10.521464127857357,-17.92310139801627,19.291981599884103,-31.628252781220446,-5.4167407135881955,2.6749027730963775,5.560673447136027,-0.0088390458735077,-21.55655151843208,-15.758654677544023,-3.8754009091086665,-26.66795743428298
-9.041540454400327,11.017123410792315,-22.151187992609145,-8.504976448860928,-22.128728575449347,-13.425150071695754,6.057793276793815,-17.883232111011424,11.544349491858208,-31.63059691754208,-2.8143432754827824,-5.779990783721381,-3.9057939369805936,-12.09642969680467,-21.93747905908016,-9.439614788368605,-10.994200347157342,-30.999093655129215
-12.254168925253126,9.789700192980959,-23.885874315760123,-5.684093626972575,-19.003215041326065,-9.093004773929072,0.6136340767484612,-13.643489793062994,6.046617672787264,-31.835472979254693,-6.462976434710116,0.2173950663646389,0.007863237756613017,-21.55160704726218,-17.146869669674892,-2.4354620522625154,-21.238020691194336,-28.111077682252702
0.6440518913945752,8.46431988219942,-25.719327745952505,-5.501209706013935,-23.790403085734837,-10.522969173244238,-1.416380186931411,-9.793840174099461,18.423916076237006,-36.63729596184427,-7.964056665308521,4.065270872737139,-5.55033595071135,-31.596910888561986,-10.016781129430722,1.6404353488188264,-30.016877955888063,-27.28133764934712
3.7738706610597834,5.380845021667186,-25.405406899982587,-5.807839999641718,-31.607364947588994,-13.711015985975552,-3.3525760282215042,-5.650731969195451,19.378812150603476,-36.17244697211066,-7.024592567594951,1.7596961724003624,-13.744419452559935,-33.931264869138204,-10.996573153392497,4.350568544231874,-32.54547167204912,-21.966744787928487
-5.4037626417876545,8.937885557510043,-26.362118882805007,-11.193883332399045,-29.95386673065029,-14.360144236434854,-5.976177070588217,4.547587704457468,3.735333220903133,-28.780553538311036,-9.699345562417198,0.7226865805406826,-14.90634068784426,-26.308369851967022,-11.199371133562156,6.671481340278277,-33.02301243805116,-12.069578241149864
8.463306492237598,13.276021522844111,-24.292508858399422,-9.940395365763038,-26.056535649782894,-12.27497762393635,-11.240298197250775,13.476733723083742,9.775199122859332,-13.484843705055646,-6.027207417638353,-2.7567242090472583,-18.899600943389387,-22.009504846330415,-3.984426731930533,8.798454773882758,-28.031406080412424,0.16409995447135017
-4.820946482916751,16.34448494394952,-21.930978786171266,-10.934214371089672,-19.817666025845188,-12.338341987699616,-10.843989980762709,22.894490028563396,-12.111838194484974,1.3163150018893184,-7.043483780721155,-3.5026477227110124,-15.763180004365115,-18.59305030796063,1.7614294359528628,12.48929291074539,-21.67220336608186,12.976519261368715
20.760165903500628,17.655031799731074,-16.445438923935413,-15.640189812200557,-33.60083004747192,-14.550175879063065,-11.037304705552375,32.70314279464461,8.387676438023089,11.61915683743128,-0.5409379174467226,-13.13632639071008,-26.493560937244503,-12.933780270813998,5.842907328990144,7.0992660417401,-14.43361762391522,20.801260000845225
7.080507874799391,15.64518302338096,-15.45317719671845,-13.901899524170052,-21.799810427747367,-2.3086018140282096,-11.820197747587624,33.42983450097887,-1.676708172404524,9.025321123978344,-4.195601370540009,-9.782397403538685,-5.386989865425589,0.04668811947077245,-1.3104244724798733,4.151950730162689,-10.514855258215114,16.802354522709766
1.504140877398486,10.022010254381739,-10.848584830142153,-8.649057975835936,-25.723776295354945,-4.227275852983865,-4.794057322837457,27.613609093042292,-2.167781623625345,3.496105602594838,-5.507263798505822,-3.7925518544569004,-3.6161906201736826,5.895191616065226,-7.296004209538442,-2.1144971643769566,-4.2516898772310805,10.257364878038004
-6.125281490524665,9.086466340975978,-5.561377142936438,-8.47552802941601,-17.833187709677063,-5.6574751088813615,-1.6777646416052452,18.57477194172137,-9.78513966780298,3.1373141240914,0.5046393056587197,-4.932534083642382,-0.4777897024424327,12.033902528654217,-8.109834155175964,-10.039934189370264,3.1840641318952114,6.049257321197338
16.809985593925266,5.123634820301424,1.3850406967429811,-3.615516879157952,-7.307812792891395,-0.9349887970364588,2.8999050486844347,6.313264839328374,9.944276474365319,7.558530220878591,6.418139581678254,-4.217802044903387,4.90706580268216,20.9044500235823,-9.416031263741688,-15.425116264332264,13.745641083988748,1.5413545597240983
-0.6871743385281448,7.411046082952033,3.3499603351762772,-0.5144160754749239,-1.0812894612579882,5.155015586235169,5.7162967700715726,-5.362318883002942,-6.359531246472759,11.779426615117089,8.033974197931528,-3.894453562242479,7.753080621040905,24.401428775476127,-15.023213863303038,-12.703591521064961,22.354919007417465,-2.0943664528812853
3.981911699942289,-1.239016989260051,6.388180181061031,1.2184251312918573,6.705910459713952,19.64395693814927,9.408221317374188,-20.74897856137457,-0.5903332650864641,5.643818681746879,10.33270797383027,-5.036693367246427,12.357130125327467,35.122875653988416,-13.603049027277507,-18.86784659807473,24.324407881643445,-8.08052475076746
-4.730111242327497,-2.955142734852478,5.812147771142843,2.559604404554647,8.72952230626366,28.566839785985245,10.85068414492342,-29.00676395392867,-0.8736855858576433,-7.1370763190986,8.040843067083467,0.6564170366003248,10.515899840264547,37.24842628052702,-12.577488435437163,-16.046555402012448,22.486264657057948,-13.780272702738467
9.603157219141952,-11.604684965852739,4.258641695469967,7.708425287514192,0.9856466074031971,22.646239868637142,8.28590036118051,-30.428707247382093,13.200751699858284,-17.383204987344975,5.455340198364516,8.692652325606403,-7.3411321041200335,23.942229353661695,-4.231532581216282,-10.880485078390937,15.571022172199488,-17.82631110463911
6.551476787639533,-11.367044418656194,-4.620071005242654,11.87967966837213,6.521579886899186,22.292685540765127,2.397529836468303,-29.311807939782078,17.609045892647533,-28.51235980164084,4.627032072779581,8.72032286853814,-10.256524373783304,15.224312953331651,2.3526881647481073,-5.420489419852953,11.684357291269938,-23.441252408083898
-5.681837481490554,-20.01588436319635,-4.4174692930254515,6.967796691830985,11.762968042095217,24.47884707062392,-5.447162151518214,-27.60927964976122,10.690886032010532,-44.137646216255646,1.454313754228334,8.845051984347673,-5.945299603218752,9.825318517675427,0.7298038020514959,-1.4244494049782865,1.2558968883553165,-27.79292711221189
-6.1979635964420465,-22.218894089310005,-8.707957805803218,4.496411676619945,0.6940153430948701,22.466400086631182,-14.564513310349849,-25.028207781120102,18.13012773744509,-57.22747360415847,0.8200923681356231,5.648849683855255,-12.181226455082083,-4.266463351371044,-4.6078874290166265,4.623271573813238,-12.589224963332727,-29.22105660482041
10.0813672064859,-26.47225141190307,-10.65547294430911,6.0280708400490255,-12.134199448447829,21.724237163646382,-13.430851026952611,-23.131174539337927,28.696000293957574,-62.80106158017708,2.431414763421645,10.655360213333887,-21.54237535182197,-6.640371872553915,-5.945380560221591,7.156139933590003,-23.405510036863397,-23.233285892458394
8.194750864476195,-20.47103543565484,-10.455307850799395,4.140808687645214,-0.9399556739936195,23.8149406487596,-7.6126060788854195,-20.64868734152521,27.056107439108118,-59.490963957608784,7.753167045059348,6.090905739322128,-8.051844729020223,-0.3236035688678509,-5.040470155548563,8.02961000787362,-30.020977076029254,-12.368615435766399
8.845695780464652,-25.60224556534243,-7.4238354591893705,11.139523603590028,-0.3916720870655741,30.496407700853563,-4.727020686578247,-15.725306781727443,18.3861779826728,-54.62127136127103,6.140675457603925,17.05355628073113,-3.2531405301116587,4.039341511071136,4.161669650623985,4.704537513977534,-32.923825404862185,0.7362983136625125
-3.2003374700489204,-14.228695626090628,-5.662657426478475,5.7348517258032965,-14.98152405205426,24.092644481565085,3.429217896213613,-6.798566239218244,6.787705345582497,-40.08614955156563,7.457391575620635,8.484213833762007,-15.642540521163717,2.9329784297827075,15.410990641428878,3.0403435365340785,-30.649098541646346,11.58930349974954
-3.138214352604258,-16.233608377664837,-6.343642667124312,2.966108877670651,-26.935720544180267,15.150743307312284,7.578687957522622,7.205712690055301,6.616245530488127,-34.34266783489489,0.765668210144379,4.211397574754129,-28.813597160084687,7.881114187837035,22.164472510962575,1.7674338720678469,-20.755261605348565,14.233383729045869
9.520422834092695,-4.370428618747382,-5.8534302974796155,-1.0729903567800378,-35.27760025551384,18.71005176525315,10.553528551034749,16.22872656433178,22.75455373202377,-21.765342599235925,-0.7506801409852889,-2.014957430502135,-36.90689720151179,30.700528839080278,18.36738474296432,-1.9463097553570092,-0.11717454738441013,10.914774250803184
29.502125544504732,-3.4441766932013067,-11.418668066586815,1.2348822854165125,-32.78040497600166,10.74682058602447,13.72101357902229,27.790065741878074,36.35455439783424,-12.60798993042502,-5.783172911069186,-2.0892284859919164,-42.852222312649154,52.738787224679555,16.422310756645306,-6.831380737685384,17.88614556711159,11.39935768381412
3.4858374670260757,6.46737195380901,-12.394636765419609,-3.684674204685355,-32.139554009686805,10.206705339241115,19.42499525950837,31.244981536445678,11.185094462120412,-5.014864876283593,-4.468359059190712,-7.827972075700811,-39.32528969029488,64.23030813050933,11.93470368053202,-8.102593995173665,24.85622736968213,11.292645615769587
11.258002444525461,0.4615390332064617,-9.855545500761481,-5.5775719080575845,-37.944872820430945,9.57011317707417,12.430933465884774,29.523151812127754,5.938344634052662,3.651040514141073,-3.153972572014717,-10.148988507050854,-37.65444309351207,63.71041773456214,-0.46655977726252207,-12.010089229069933,27.33623466226534,7.3720437177989915
5.8453179306700935,14.47641820651413,-6.731099955075975,-9.03369907703826,-27.344360557164492,9.813673789105856,6.215664521647773,20.866683632254386,0.8873107845353765,22.472145932572822,-4.379095748388828,-14.423423863433978,-21.335568497424,61.92165911090248,-9.941417093684988,-21.093012133890582,32.65059407924713,5.985417311571606
21.623379194356467,6.616884053411965,-2.1423534745719564,-7.021672562749361,-27.779751284451727,16.406272044211796,-0.09966222888313414,13.967063041681833,1.5006963702133707,38.167249283713076,-6.385870512603815,-14.205837930660048,-12.732330576090853,54.66494038193105,-14.92729013423765,-24.511398098986742,35.42822693521859,0.9804420152067266
-21.09645872735905,24.930589596266156,-2.241716242694948,-6.865796698259278,-4.28948194930307,11.574249781041107,-4.171191221151906,4.429639759709133,-26.30417914012241,40.18956571582726,-4.877337751785283,-14.281430895751148,9.053986779310705,33.444228317630206,-9.174028340243852,-25.780970386347,25.610483909277054,-3.9317738459695164
34.71952152223927,-15.251681248559148,5.764003577336361,-7.101178893399666,-7.557826524856338,4.595141971943826,-6.096509622605115,-0.9095954544877003,-7.526299635496713,46.02008213612275,-4.736366148464411,-15.62675139432923,2.323490170211869,9.392694606203865,-8.404471815262145,-13.28050259110633,15.307023582722012,-6.993275876264213
20.02584317373966,7.068055880556768,0.1948159663712694,-6.0676107762986,-1.7443002433146226,-2.4801900708177094,-8.121674136194425,-4.00384745653205,-15.702070711603952,52.04571374731641,-4.498071515510791,-10.624467275616876,2.037614146554958,-15.926948500533822,-3.4387360890937053,0.9780585362642125,2.857764073841661,-8.203948209187788
-37.34496624848717,39.44763854340813,6.148788824537478,-4.4486694478413655,-13.607028888599446,-10.042329431298864,-3.312913168798723,-10.71262963473275,-52.88243100308409,57.68076569714225,-3.2835163641095324,2.287973341884303,-17.78063463146204,-34.213605630450864,0.15674535308516546,14.162593785446317,-12.127824969687328,-6.489439123894257
-15.223002093792509,11.085248812055537,9.367921148831076,-6.052979415066568,2.4602479731717537,-15.35681240410074,-3.779713756991458,-10.293638405690565,-62.42601601076356,60.38638817659947,2.130022281276117,-0.9132059948684184,-7.618814402006025,-46.83429867889649,5.311763189475075,22.171433297862727,-24.864412751220584,-2.8262088112936663
-23.668465630809216,22.56840233677386,12.781974554383025,-5.606995087408768,4.46479854253699,-17.34935776384369,-8.15479412766745,-8.997015747804225,-68.25909541493154,62.99490678697454,7.6409365892592565,3.698168211853006,-3.1220308133093226,-60.91785725027456,5.483308041038879,28.52021092581088,-36.3284742063026,5.6179349512427095
-13.266468373916274,10.90789964982114,12.094038221935135,-4.087265993321813,3.0514135214328597,-19.53559897389839,-15.754476046239754,-8.287673077723383,-67.06142784679867,53.104039239407186,10.417169033582752,9.188423078543575,-2.532473034180682,-72.4601296678907,0.18315111853101396,34.28311700715393,-47.691798802819434,8.686705411941752
-3.6461440355050803,13.409040004974996,13.749553067513334,-3.2516033484981692,5.935151869241629,-20.743598880710287,-16.519937611812736,-11.388359769082042,-52.87601130062241,43.99548835470996,14.16973034097397,14.971638293640527,-6.826744937469018,-71.79281648570273,-1.8971081275579316,37.7999251584065,-55.047972566805036,10.384188518957163
-28.88997181964825,7.024638837260065,8.08043319077015,-4.564844931433782,7.744935723864316,-8.180150175104687,-14.845701882581816,-18.103802856660252,-79.31706351308569,31.372563075983333,22.121342182952056,7.473413531315831,-7.50864757035662,-61.25952153013688,2.7582701587063028,32.625179751343026,-60.350044979072216,20.86690814551696
-12.434211338891874,7.770607215570465,8.465819659792647,2.9107046757416875,6.625366121764596,1.162342773876877,-6.337094757060101,-25.11368019063916,-62.106071327541606,29.786515445829412,21.869487438500354,17.162988655642522,-17.176051806584066,-41.055379670864255,12.78213942564361,21.786225999783227,-61.4494394920682,35.25209639820712
-10.236675597920618,3.24445340049674,11.09709156549371,4.0381244537790515,6.2875354385396385,15.682487079300621,-1.7363913453857815,-28.12109065645738,-60.814370933843705,29.08118841938531,22.008062733656082,17.86811360286945,-19.227162165191096,-20.94598574245427,21.826808940834773,10.45887948284204,-55.90460541788784,46.70383071720577
-1.1055629566967244,9.266772120599077,9.528869296149285,2.333121910788188,-2.448285598297721,16.825352602139915,-2.117750013919477,-26.735441122526932,-38.52744934013502,25.54583489149408,20.876901588715263,12.127913230984358,-32.21696755458302,-8.25549262440843,24.911796868460346,1.0845391779592495,-52.69994678005612,55.612861376072445
-15.314700937662453,6.599028959750867,9.913621995016742,-3.8644555306349284,11.766135846956164,13.673148669486432,-2.695864292254561,-20.66379452056146,-46.90636190319917,22.501064067230885,16.620521648740763,5.1182706739173405,-25.676269268840677,6.879707393815101,23.013744026829116,-2.137556448146631,-43.14381579994454,54.459661694402435
-8.234430532715775,6.667219469349746,6.294259303283203,-5.081777948867662,2.34815583115226,22.632414108371105,1.2169149357538576,-15.375018724833858,-32.53243361250533,19.068201281770207,9.238937227252809,3.8705653947522287,-26.85159096013357,28.073124848256924,16.132714313516573,-6.531782051168269,-26.259525392738833,45.39282120658087
13.103962528304944,6.0533622638536615,8.924876000499374,-9.229093062378714,-4.236880210688181,27.101370554323292,6.202644697538062,-16.533295320745708,-4.683256638549448,15.540463649409592,10.646406545461646,-2.650505825821212,-37.4031263064741,52.981146188076856,11.495444856672425,-14.539625017821471,-5.953274773978926,34.369581208037545
9.149164794835743,6.710651231272866,8.039730415181946,-4.880415956607866,0.11671766786176718,30.98636403732145,6.890227517361443,-12.029095380369327,0.6053580400627041,9.378992664135554,7.756805968159781,1.2779738125469622,-32.62347710292258,69.00609307888563,6.8558724353408795,-17.274274569104406,10.35305882338115,23.34321550948463
7.636045466977107,3.072633838043019,11.158501161810955,-4.926538946198373,-2.559977642611635,30.088147115728745,2.0101912620917917,-8.99146294004899,4.818010372430599,7.810702627889705,9.749976242032902,-5.438047721497104,-29.700413637525585,66.57767493745808,-1.1063008809353834,-15.224062623815048,18.65561961452228,8.700506569503148
-10.283268656188602,-0.9543420822856437,14.667884766233348,-7.41427780081757,1.5028717585833462,17.082423623614993,-0.9177393741635891,-8.201687052251474,-4.643249021873524,0.1911401448549288,8.032049052070745,-7.563943947886062,-19.454114360048557,54.48525401962161,-11.21911655408091,-14.346154149688722,15.927129673129375,-4.2849089827568445
-6.619846418089898,-1.8545600774851971,7.43493205867961,-2.77314453827222,-2.343299239777684,4.274102129271425,-3.3583516164758582,-3.8979862762211934,-1.4109292368035646,-8.205937834636249,3.9702452363442284,1.8340028601536742,-12.040988299500514,31.16646971818496,-13.81439224054133,-10.636624181328331,12.519421843908773,-17.17543652301037
-5.39742210164691,-2.3623994787880216,3.717706610733213,2.746794918105171,-11.754609693011634,-5.504710614785935,4.161234338603503,-2.5257947577024487,-1.5986543636290804,-13.376326321482587,3.717014575807177,9.962646057935054,-6.386802439037133,2.676262659948975,-12.310082371051399,0.396741423259084,3.7450372797427214,-24.013835642506958
-4.565113872559146,-2.2825078215416514,0.4888523070532673,4.360340719011713,-15.012036428556454,-10.789117225402048,2.9884692269979403,-0.7647706723373364,4.656912338257197,-23.03475052572869,1.9988509499375908,14.38055856972659,-4.9330005197062246,-24.051509442113137,-8.854590360937811,14.261645223473252,-5.220050902403505,-28.218009203854212
-12.814391861396581,-5.911789089747019,-4.107093754276021,3.825361550928495,-11.236566352995915,-13.14161125491237,0.447762713594718,-4.865028748873892,5.2461180248125,-39.329445896695084,-1.5748650402463866,16.6502797578678,-4.163902292739472,-40.42280993995489,-5.8892924654063075,21.680561054925114,-15.449964821772678,-31.54567872018024
-4.461202270594592,-9.929843933363001,-10.363070286205053,-0.12766392277538374,-1.0140534989151906,-16.468472994522482,-3.5584637754313833,-2.131080125051838,14.817532588421926,-49.369357377676174,-1.4376309101114941,11.107675286659168,5.393296432813219,-49.46487598065677,-7.711061637212597,28.610570791145072,-21.573415692514153,-31.35996765087811
-15.150552763239666,-17.07105328315229,-11.443000609854705,1.4858055723087595,2.4717984968243663,-17.15633770657829,-7.369949519482518,-3.3052915448922864,7.687081175082575,-59.89263720906081,-1.9840339131765106,12.010788863449843,3.1328176301413926,-44.4391734912511,-9.72991612888785,25.676491715876548,-28.08254650480655,-28.344362898089965
8.145776335754304,-13.37032489521393,-9.690635243708874,-0.7093439632356282,1.1742344882920186,-18.623198894358808,-6.884990362582165,-0.6727148167700339,34.73435912478901,-59.18012633613486,-7.9016347465556915,16.722874191731954,1.7501743557251324,-43.90052597123538,-8.039478045624307,25.183160075721172,-36.34445266733255,-23.18235167392032
1.1690580306577267,-14.062231215365532,-17.21549833219086,1.099535584065205,-16.527927885463555,-17.255693714542712,-9.62315333408332,-1.655349399430225,28.477782651123682,-58.266920820023984,-11.377803572386604,12.15780580868949,-7.6414792575669335,-41.69635163339691,-9.085089640046474,13.36079619749394,-38.74171768456692,-20.26841566406418
-0.5332250736379915,-13.189615469435552,-18.58763090267189,0.3694043520720003,-4.637805744774135,-18.62028783641478,-17.04922572552318,1.9500457630024206,26.4178405394332,-55.004323550862395,-10.068744183905125,6.714160101898441,4.352846656113321,-34.89677718515106,-14.819836833989232,7.006493819318529,-36.739095174225966,-16.379733215997806
-9.558857139569117,-12.705598229631715,-18.20159482566902,2.5691243169820637,5.887183012942671,-14.220733288823084,-16.17464948248674,-2.454384809847973,16.24957603249663,-49.97805598723873,-10.712830372611046,6.544384449704426,8.045210728726598,-16.763280649507966,-16.747427094964657,-1.4970875524701182,-30.43413077143093,-9.856006961524848
5.147386576010955,-11.340595046705548,-16.447984217141393,-0.11389542603637448,13.777571837362368,-8.549262482463941,-12.272864197349971,-8.13026191681709,26.68428517113105,-38.890954534564464,-7.938876302154791,-2.6095424480435643,7.4395934418970135,-0.08889137753482879,-12.035716586413042,-10.489802237221085,-18.557162235458442,-2.7479341536369275
3.2529217804090482,-7.922679625532799,-18.404964310748728,0.32830787533598627,5.263701677285484,-1.2152217717979399,-8.761812689836443,-10.780647705750233,16.60798175349727,-27.504604907133228,-8.973544749669115,-2.876246376989325,-3.4211127630144578,9.950661584570566,-4.2979721189494,-17.725557192711463,-14.096557986033268,3.772707062928367
7.5120632581760365,-4.307316042774782,-18.506006259816882,3.4074733130221535,18.627487105147388,3.777443221638314,-2.41871179239106,-13.23761718053908,10.923313890069755,-15.232841915846572,-13.621510365650005,6.0372526602769305,6.713584955256497,20.972809593496052,-0.1748502784622179,-20.762942916442718,-8.067695632036425,7.7528760101979834
13.33495744462473,-2.1546533380379214,-15.38386364608186,3.361821720392461,19.39582431409432,12.581190878106048,4.9010187784475985,-14.426933547322683,-1.2098011948660554,6.713747455126246,-8.894283956772362,2.5485998776546346,5.51899196864094,33.27064981019794,3.751739717308056,-20.090281072831907,1.5803468225735813,15.931070210612422
18.76850859156891,5.078409160095018,-10.405706389081264,1.851561867897686,19.19006076409541,15.137293729984062,8.705199869197946,-13.176700064010795,-4.654485365825397,24.565635759666225,-6.315469211562105,1.6970920484481073,6.27657960984806,39.51997185157619,2.4036653559726284,-18.344362518142802,6.742085426337162,21.276045095924133
22.445566169415038,8.993337402786587,-4.841046297227155,-1.709225832635525,23.283788627812,20.72325586112155,11.53300910640932,-9.48691064887096,-10.543790518775003,41.936370659127384,-3.9319017811984525,-2.5720469165671416,14.650516752482776,41.86936219140826,0.7615414201715573,-11.228277417605511,12.202856823725305,22.12773101721018
28.76078504243008,14.180076282212333,-1.912549628893867,-0.9727617764426536,33.630234639348316,17.229535260002375,15.240019369643427,-12.83035778193982,-12.139400006319704,58.630845166135536,-3.794384761120975,-2.6415104791398525,19.507842195152787,45.1041622338529,0.8762505126601576,-12.218823454628653,20.990157104982075,23.27146833237379
4.022300098187804,11.556486556119838,3.653341082051347,4.158637894218937,39.09648598953317,23.21111930807023,16.603600430904038,-16.56630458100537,-47.52789777584931,65.95772597704678,3.2769187724150264,1.684018657215757,22.020471182071148,45.415828088800644,7.240118727920468,-12.331516851309525,25.48678732563053,26.367548822653692
18.73905358609118,16.65017896656387,9.415222141576134,5.091117765495944,37.92477047271471,23.335758546160402,17.0886929167044,-22.55023531169752,-33.70026784527985,71.43686159501269,8.981110162379796,3.1778685478659425,13.985177054411075,38.89815386428651,13.01717425704612,-10.101518551883235,28.81789847190508,20.966703554726884
7.28509659601494,6.413956356851476,13.810609805863255,9.344349126350899,33.43551584235463,23.853563075926328,16.011766449619316,-24.629697302204537,-42.53266791186296,63.15420705897472,9.41188896270177,6.820583775519518,6.144335856422909,34.53575101468884,14.203519673188108,-6.212458478627811,29.030437437478838,16.83481482660116
-0.7492245889934637,2.625523739622879,17.03485992156178,11.058892426465421,45.0626743761437,21.73715668322596,16.400284011321304,-23.781250666740792,-35.450349378134085,44.918610286894065,14.725669213273935,5.776121376876152,16.955286189040944,28.91069356370228,18.904817211641753,-5.351932560460633,23.683060694455264,16.218117933106445
-9.367827769637817,-7.312938963855174,17.232516041263832,16.387209693477775,34.52447126857007,14.252135383915284,8.781517037799137,-17.465774636858377,-44.19213434023932,35.480550061767644,15.156685874417631,10.493857405557074,8.72216713187281,20.069917131474316,20.675725681306144,-9.37546089125507,16.68217599333117,16.479960119158687
-7.730655753890039,1.5013198119820212,22.89984240483066,11.754898970913429,23.012692743331876,6.9650021322123035,5.558069909903719,-14.472444073843608,-36.72633837708536,38.35589424853745,21.935587950147383,4.86026161249192,-4.589936668014244,22.07622215012478,15.317031741164335,-11.739996511700555,17.500680337799096,11.37035117513254
-12.537135609605231,-5.697828167167055,23.68515962507646,12.005960192175356,30.54722938094063,11.88766977921814,5.851093467957929,-17.145020779396855,-45.475383361087,35.18517339518489,19.534803568330858,8.211562438306943,0.45686124159873565,32.19527311820671,12.008632252438039,-13.519794763555634,20.572176716429627,12.803639465006182
-13.72847518083379,8.199585025379617,19.393193500302058,16.26149662611428,23.82684284577583,7.828418600977168,3.1175887094355916,-10.639502100429137,-30.692619021077892,31.144429836894272,18.892008368029863,10.781980787372852,-11.0988802993699,32.45812238964133,16.121771994276955,-13.347666028822903,19.25603084794062,11.5024426308403
7.933943651772304,-16.76826696950262,23.98904235581891,11.923682213946304,29.707459895175774,11.97501984725046,3.70537738377773,-7.3583927158922116,-20.3082068470004,21.936901476806735,18.64000268010002,6.80970394238615,8.009215716029663,31.751696125950147,11.64065042242013,-13.372097854124087,20.290716631314492,8.638755381138902
4.402554404849186,-4.7212945725326545,16.76930697509795,5.926238407806224,13.813601360583554,-0.6728998438809342,-3.4207974810611628,-6.715715726293228,-13.052641906056923,17.621510334945516,12.626357537821997,5.1815792487683225,-3.9385107511098933,19.33370994876578,-0.8487174299749523,-11.54229345837053,12.933970175658477,5.286913541859498
-15.338090849626262,7.230585852550995,20.097651755585975,2.663784896250056,24.29057561136107,-13.318201895541762,-5.663020749955988,-9.68801596361338,-16.05498283676197,14.389775609503994,14.132534255333109,2.186604626944326,1.3985543244308793,16.200640217945285,-7.38120638744976,-14.596651152716198,6.561019671516732,2.618909524989107
-14.470985825149729,-2.0066732861362055,10.829234412554209,1.3550806196874552,13.676760526139683,-3.8902305717741417,-5.657985785290299,-5.728222843945952,-22.96751810352524,8.530870483294539,7.435645346429022,2.7076581950164993,2.047452973863919,12.000823872875658,-4.636385215224557,-11.01157030642737,-2.7343618151235596,5.127097743248083
-5.886915730956545,1.4541874975239306,8.105014377855557,0.4376220773679931,9.023386803949263,-12.038022680606623,-1.257157748278094,-8.50838329131614,-2.7351259303903817,0.7285626604523046,3.9616551352433262,2.154816356745078,-1.112860694777602,3.902238983559176,-8.239424539415962,-7.330130665660743,-9.776233926903426,6.8544532419790976
-3.2579295040493346,-5.62935092116628,-0.6728142078942003,-2.9206453717212444,6.326520867320257,-14.90966208641105,2.754297553804376,-5.821241081127461,-0.18274669728553405,-8.431041706492294,-2.0512342334418197,-1.8157173673518159,4.710812586286352,-2.4309178686314183,-9.596375714769986,-4.3336037493442685,-13.78325722891849,4.480708870306629
7.478720267752787,-5.190584227143014,-11.304925626311405,0.8507561125329621,-10.42967581431251,-22.954522757025988,8.32959725577578,-7.920818245208956,23.850337611265417,-24.12364696966874,-14.802296652518258,6.90957253801259,-9.876470813702396,-10.025993873754032,-9.97672214355655,-3.096232729806016,-21.103110007642908,-4.044853087202608
7.963409375253385,-10.803916559000386,-24.572538610988435,-3.09213117899896,-5.014153714959324,-25.234934259519978,5.800686256989933,-6.408506511248664,28.73847313610053,-44.39594631277491,-20.32646619342267,5.478762396622323,0.9268062015934255,-17.32042735188452,-11.138236234361965,-3.32505084413415,-32.51698212979344,-9.83528464227242
15.286271339084452,-11.531659939694686,-37.44821971432644,2.047842336841431,-9.653942064832052,-23.411075305571426,4.152136633475091,-4.897597745825227,36.063988249394114,-51.66939838687176,-26.3386950482683,10.298339207910253,4.99128489644842,-23.33760799856129,-15.815268116897823,0.35111273620606376,-37.08713749384829,-13.378782056962034
-0.9242240125904031,-13.623889327839953,-44.07246069103511,3.282214989803472,-10.579277409381262,-28.81124152882488,3.4816648889295703,-4.266965234348021,8.521595730278069,-50.240799557122045,-23.170857442451148,9.551702227892424,13.157012973294034,-36.183100297129364,-19.808468707189178,2.6587367473470973,-44.872257061769005,-16.335435677887666
-11.468387394730593,-18.643108840656456,-40.73422323253186,5.3962333054590506,-15.993390749200639,-31.66965732781921,2.9104088772918986,-4.32124530567072,-11.407616285020893,-44.113976932956376,-20.88169085963665,10.953797915412991,4.915904305555621,-39.74335415546112,-18.332542835812294,4.08610818026456,-39.56343498343495,-17.728578078537804
-2.283481313181019,-22.097043408702238,-37.687525518335825,7.510994373778804,-17.107069229920544,-28.763616317590635,3.5126599792405173,-4.181468336066601,-7.1218591758597345,-36.706815199276974,-21.521997819386495,10.793616328341457,-4.399735867344817,-31.088619408680792,-14.219499442099004,3.168360813731141,-16.57069735042505,-16.67920079363533
34.05250328626222,-18.614499023141207,-32.19790594077871,10.79840732273978,-7.670204177829383,-21.167353304834798,5.093157650782141,-1.113165911994093,38.8595769209354,-37.88261396829183,-17.865095237388307,10.926637930084913,0.05410970912791946,-16.176005289384307,-14.109999734967376,5.374329571289831,6.332304021168014,-16.70289489904621
21.268890007310866,-19.914386945028944,-33.05451589149136,10.180285410370022,10.07108674095651,-13.861413331869118,7.651955499298046,-4.003139014577917,38.93767502153682,-54.57494479766514,-9.7156570154057,3.83319937295218,5.874949488258145,7.826570494158643,-13.218749761199334,-0.6242803274692807,22.40723860403081,-18.678493739198185
12.491505946700306,-23.164615928284675,-26.19459525227113,16.496653041798965,8.089039502818196,-11.435711120708062,14.41181120275393,-4.7457402050096515,42.234255842212384,-66.17790075626775,-12.015306463825862,15.58789918608174,0.2696616423097433,18.457830400620285,-8.518295357520106,-3.8897973056163666,19.544596698749316,-18.797260405313164
4.107028953390583,-19.673631124406818,-23.337027011405286,14.805890737650653,-5.217775819111857,-9.593307695813227,16.87655224470494,-0.9971271236863277,41.42496777304298,-69.46865697873027,-9.334109391581872,13.280060152754801,-1.4294458346571326,14.05759034942241,-5.7703794769377925,-5.789423431796278,4.385151130737856,-14.715325389111808
-8.083811823919703,-11.980518643593067,-17.059776833669346,13.115947473633504,-22.720342762626508,-17.70934837457291,15.534516801986907,3.1411332813486226,36.90042212513455,-66.59556873065961,-5.968994794935254,11.655981573167637,-6.253686796010522,-2.835056154444768,-3.3147573645817094,-9.350540738890585,-11.449784224275263,-14.831171924811994
-9.432345678843294,-2.136076779219366,-14.491813447972955,8.00881616491395,-19.613596903530727,-18.01012741060385,14.194404797641436,1.2236897922193322,27.29339232175836,-48.2810402203626,-5.728602648660631,8.664830806398513,5.71916181026417,-6.731451963473884,-8.866327902465638,-12.327011668663449,-16.241241559634624,-12.992281325715606
-6.28631835279622,2.3400617988949435,-4.0118193046598165,3.1955043087004436,-12.694674135324263,-17.038717071205646,14.321128957043062,1.9421423578503134,17.682064063061503,-25.267317053040543,-5.097242098208321,7.919923538581331,9.977051882615624,-3.6863953331183907,-7.971683587045844,-11.789092854154159,-10.965763207566855,-8.710285228967582
3.991034158181113,12.287918591183997,-2.2215636307919926,-3.2771299552528266,-2.25655530487124,-7.959079971321951,12.203740331363898,-2.0277770584032293,18.027511484357703,-4.29268229877381,-3.9772428784385148,1.022672856428775,16.96940688145354,4.835223882116365,-9.615275217868613,-12.229027549001213,-2.264044461947183,-8.332858516327454
-4.1866134201172835,15.597945141597513,8.750366687848246,-6.428529346385567,-0.11583765382260758,6.10373100232338,8.818860042265207,-3.75230508353107,-0.8699436399622451,17.768007763981736,-2.466249893779867,-0.6986451670436491,14.196081910392545,22.837343842188925,-7.156315887382193,-18.82266155803282,10.938176705848807,-3.754332005647604
-1.4242810733445248,21.742952493679446,10.837336414151107,-11.727515167091571,13.551986298760124,6.887712430175174,3.092295205882184,-6.258766537071556,-11.666146549444832,38.37574280896064,2.365482200569473,-9.6465857924386,14.645602810763606,26.296125806358745,-1.9619541416277109,-21.706547077818108,18.875148904058523,0.24014026637928731
16.867942775909086,20.76186028719889,17.223187122737823,-6.478569421520563,19.508324870928174,5.330524347821667,-4.878255646617291,-5.250154474642807,3.5102581820168464,48.64375412281791,0.7521928297564582,-4.531784370014668,7.282691899671412,36.40325919162133,-7.50889911485,-21.466612879023238,30.922033426621958,-0.7439663422856211
17.095790837137166,23.787658874083878,16.286694309098372,-5.037368480621102,33.573711959051685,5.436126359630447,-5.131663699086902,-6.781181201952515,-0.751588156077446,55.89645242237321,-1.0560089067957936,-1.9560798195512739,9.197501195596793,43.295266482505156,-5.730410737657012,-19.665363522873193,37.31307000429018,-0.06585345019199629
22.208824855692033,21.738185202164104,18.18430938707608,-2.3256987584273094,41.00180564298046,12.96631647711064,-1.964831666511536,-10.949435721585994,0.06039915256754291,62.57535583699738,-0.42235001023928787,-2.4077842925712645,9.257096352432795,48.436962415551946,1.811044378769605,-18.451248414832374,43.12647026275121,-0.06923642758232385
36.406317937273556,29.45742132507334,14.22453974551323,-6.253826422055758,49.2145678442458,23.428829049277095,-4.850523964177883,-14.825115988534968,8.973603494756462,70.73134581740639,-2.3273609348976025,-3.543135791212393,7.070894971327515,54.562706716948824,3.3965936836558326,-12.062438431194247,48.459896370504524,-2.414228169518447
14.765697340213434,19.991835260912737,17.005279903260377,-7.153624713350158,46.88367119794047,24.12814727504383,-6.855006139802045,-13.134633144316135,-29.09094561061726,77.92304192432347,-0.13030078787777488,-4.092607734544613,-11.326110695521185,66.06703504428586,3.5185484709722488,-7.237293630943372,57.317315295517496,1.3954616506153825
29.651333652567086,32.892814783593025,11.389625920993339,-10.884547842154953,45.23972313012228,24.048771658266542,-1.92346488180449,-14.862427396027933,-24.776419451143877,93.13501335941145,0.7000118100418082,-6.009379203064597,-26.695296218641044,83.63348327092208,5.106695120940812,-9.542279662738428,70.479983688566,6.1840379401627725
49.519759363641576,22.26122374958387,9.38952532420743,-11.391805994798275,57.75945591734561,22.897716360480146,0.7643041756385349,-14.832565694153875,-14.216183852704674,86.58170043775186,7.683237932786067,-10.270052074953648,-20.87227178033981,89.48826872964973,12.848658212045407,-14.875744402118249,76.13130475441578,10.291382404626326
86.18754098565454,38.4884564848134,-34.112852668680205,-15.60908905872148,47.33288929029936,29.854795289252074,5.212298827523008,-9.138664735714496,2.296787538837302,74.2790174691705,1.2878448847977646,-2.909594149495687,-22.666020042347444,96.42447578193412,16.490426905590212,-16.987563973890566,86.86911170184234,9.908904573138026
25.297442172935078,15.65553749679501,10.376700172933159,-1.0751073935876128,49.312083038265015,19.43132354236807,3.9985597771166317,-10.476156230293684,-22.894481335515223,67.65295878587722,7.002518416695679,-1.50642341773987,-23.287293191787963,86.47299504748574,20.23133467746968,-21.151226405785277,86.67751480049525,11.38441701069307
48.590492093029276,0.3452066204054898,-15.15199527544264,6.037873804087316,49.43896187605107,13.307303636488811,8.549070073270745,-8.395586730556701,-30.31642404632593,68.65671169276513,3.2449137682854534,-1.7636241724045387,-20.4899114948731,79.84888799800035,29.24729113156127,-25.706518779508638,83.85739650509615,16.18284329334124
12.021496244567896,40.70272622603319,-17.14277995850503,-6.184380845167972,40.38914703584798,20.174257579035213,13.102048994205896,-12.272023362864969,-25.24255432128085,64.30182299366327,0.6597406561873627,-10.321947661402609,-17.398870431050593,75.6731387680199,30.15923392815502,-27.040072018974456,74.50241663033526,16.198646440400914
48.01431992586658,-29.485382217175665,5.96691351682407,6.985382320013355,24.99466175385507,12.980973417805117,12.481660749106283,-9.507541119616514,6.096874988911882,29.49027344485033,-8.663261602638514,4.557346714642063,-29.639355743726167,67.1096039704435,22.57657880970288,-19.09707223534469,53.827310211990635,12.799088203145097
40.160904068575995,-6.700394357409198,-22.874828755102655,-4.453591210049892,28.84177981998881,9.794114081845812,12.352077190890308,-4.887292209165507,14.970658885173446,2.0156221850675706,-13.884067361676284,3.029876037685245,-26.3514684217055,62.75205789856787,24.566053015007466,-14.865963608384984,38.62916776114756,11.355395581684087
47.25117296872865,-26.19828765267632,-27.104295966088234,-2.4147745727356975,20.289336484362963,9.246451159027364,10.369533969963301,1.9794318401979325,26.379187701325833,-25.4464538436672,-18.323023075908125,8.924103995711926,-33.023825095682625,54.78776936872452,25.287691284062035,-5.166882103627,25.19694930173011,10.89104033804157
27.292260710560015,-19.423337145214262,-32.991378238947625,-8.382862619684849,21.407921342160613,7.2363384721210435,8.682521275131808,8.065318970303803,4.189107959642463,-26.723679063450852,-16.511278375053386,5.540532185807351,-25.925540983945588,41.75175531542057,29.42910759905532,0.13677812911237197,21.34322318550587,13.261566539925186
50.50004247435626,-16.161163439936423,-32.039810815912205,-5.5607162946480795,22.138724844512673,6.400512887039932,2.7988014634150176,12.882158663057268,21.155447942134145,-14.316249200980032,-17.823959185748834,7.723112368684816,-16.677832894458376,25.987679703814408,25.56438736274498,9.345963685849334,21.01315371445537,9.873137875243447
60.91659093146049,-0.3959082522318855,-32.84343412183667,-7.718069429202865,12.813565862780408,6.055347095299729,2.581823197693387,7.445517226583451,35.38305050561994,-2.3845477552768486,-17.378161182156095,4.338837560230863,-21.003542428279612,17.651821042826107,18.674114853709305,13.573859914026666,19.12847770699999,9.51499356763979
38.32670947769424,-2.303825615272639,-27.394273472268356,-6.8469800273795745,14.33113349413087,5.419555057048207,-0.6599369706769327,6.599449704379861,15.719111416762374,-0.40139287278768165,-18.201256813182265,4.665168632208346,-13.511602348556597,10.103322046462253,15.203738979747014,13.89474260715484,15.298498693646884,7.5972602111803536
35.66084679972144,5.849869108796308,-29.462031010851977,-12.029610841431126,6.28089042610328,5.469689083621979,-6.535834132171072,3.4103351555071466,24.957573951589495,-2.5073436593737455,-18.63304684408206,-3.7981093916735684,-20.081258809830324,5.295202252622943,11.930590901859242,11.48054618833498,12.159905409510408,4.21763367674429
13.95351614377655,-1.6188245299978572,-27.523055031991817,-10.082160098002761,21.671080981520667,6.498696355327388,-9.284049133641663,-2.805351998782596,5.968677997630246,-5.186751134191248,-20.626668291662533,-5.425782087768464,-8.583060204666634,11.723545667135184,3.7765032494822925,9.163387492398481,14.88848317249158,-0.4285346918611417
13.43965615136645,5.759292365494416,-22.35857001037776,-9.012555863912395,21.340877413142522,2.6470854961759667,-17.98674077674436,-3.9419408034311605,6.604735604692669,3.9628818967743484,-22.326606201141995,-0.4131886575319905,-6.556434096648556,10.930896085894197,-11.992907046149003,9.677726385971882,18.99189644831735,-5.364633912843704
0.9155831414781872,2.983821060248238,-13.0896198433084,-10.578631073208623,11.930930107717046,3.973575868975929,-22.585152240637406,-7.421341135627234,-8.095703287444422,9.804563778971229,-18.556982378457654,-2.920724827638977,-8.923122857983532,13.757115606816413,-23.36570574504148,4.429725596562523,22.71222193388055,-11.762525585772842
15.44433952152924,10.269895270174114,-4.696713929057169,-12.045962857938983,15.7071260029199,8.915614880988137,-15.55962938624161,-12.364555182655597,11.575173506163239,19.467261490125942,-15.47021644708181,-6.60066054428092,6.58289331726953,15.123851139753889,-21.747980954869004,-3.2602071872179703,25.65874028454717,-14.836951475427092
7.025107204635102,10.332075265276123,-1.7697318900687193,-4.234717755847713,16.751173894426856,8.293345355492113,-13.707296804003478,-13.400329380043061,13.663472248933582,17.911628888006277,-13.945210064746536,-6.27715824798079,17.988677792965092,15.421579693667688,-19.73755182888254,-15.735812591952222,26.46415044421763,-14.197253983117072
-3.150440693783924,10.885301560551271,6.531368313382032,-4.625625630075538,25.512370794891005,8.84512093233963,-4.332642997954153,-16.38805064836425,10.96238249852072,22.03239476048885,-9.977977928340925,-13.37619578037859,33.888166363972616,19.044742474223714,-14.209342789721166,-25.0867679676374,32.35502827716863,-12.773141023930322
-9.51587070901516,8.609188808531638,19.523014008388227,-2.76930294607187,18.064487698406126,12.817038407562237,1.1383802740807312,-14.296284655780982,5.8157172205225205,28.313814127635467,-2.9825557335214423,-15.29994645258904,33.77328795963318,17.789929263109755,-6.628193478835119,-27.21140201971428,38.35072802221855,-6.267650113245928
-16.17286674722759,4.675606487206371,28.70901183833704,-2.1814233071531137,7.884208717370559,13.861312678045328,5.244876648218402,-10.64063353108911,-7.538301425520842,34.11905561272962,-0.9668604526570572,-10.583565463175901,31.120864705655677,17.907072642972153,-4.416067122832954,-28.262105713324416,41.13078150242612,-2.1027499779641303
-5.836068590334442,10.60814331626419,38.19101535751434,-2.1783778056743124,7.373981606658866,13.247461637296507,14.822888873177172,-6.299941027751775,-2.7320531244587913,50.581023166550644,8.081027473348456,-15.145285237458966,30.325548460890076,22.814028203114624,5.415539296686715,-29.410724871385575,46.749859713177784,4.995094451624491
-20.88899608189793,14.492529178859662,40.644720866538954,-3.8343971892222224,-0.0680957737160881,5.311302930003662,19.716011452572346,3.804070555248108,-19.41454821985211,57.97276885634228,9.121833334711333,-17.26619719671298,27.090451722636782,16.787732150592493,11.733665530758303,-26.848560239954715,45.93036469231118,5.943727995382673
-48.733862077292414,13.887293560125972,40.46475174088356,-5.2939803522816025,-2.2348931516111783,-6.236203406948009,20.900819798989914,8.733808754532191,-40.593306074961895,54.34104749565095,5.475937264072792,-18.899475813117775,28.935273007382413,8.128922669985442,7.01868625296818,-22.919349935448537,34.1799241229532,7.676862378146705
-4.213179095408481,11.624482735167422,41.362125356409024,-7.924331983979931,-6.060198104847586,-5.7698536610046265,14.080369887518804,12.786287698227639,3.5569930842107054,51.502349349441815,7.885707288695526,-22.095952709952922,30.00059985310968,-3.84617602121579,4.942704275653938,-16.060522287729334,25.365817356397198,8.92495664747964
-7.83666085565536,13.758847242762943,37.28208318805863,-3.815171850185088,-4.512742007711836,-0.5163558925853575,12.04782074802841,10.102115581736378,-2.590377751127992,53.36288188545434,10.979983906233006,-22.363390315372644,31.653691953095908,-10.348540560996888,7.165918895349774,-11.350231858057299,18.999632618006245,14.180273986940417
-18.78343472255294,8.962058735520372,30.763745896289063,3.8107974965205615,-5.014602265334894,0.4420842354232626,7.5764932166372185,9.37290283626531,-22.90201565813325,54.06307278550155,5.090666592417458,-11.49855631380465,26.570269484149673,-20.069884494313484,9.684378996079008,-3.8078859630007518,13.518719826044155,15.239568804974791
-21.7212984818749,16.47266041029264,30.693985252712658,2.7463609779351463,-2.1946926697693208,5.8946270058109,2.2289032841782097,11.37998181241247,-14.603789616601347,46.278477942876904,8.382110259362062,-11.865090426369587,24.320841000303343,-22.951636455184186,3.513587226127159,12.426027661309146,6.6768217180326275,14.73960208575088
0.9280779650498907,0.1572557108889292,26.81875392062477,6.858919677613609,-7.77203173829114,1.5832055686651634,-3.4090119077211973,9.385037658529432,0.33135145922278664,31.571502014102165,7.572876945645055,-4.712723144591845,8.40129775530336,-30.41992887979393,4.278795257426523,17.527035448169187,-4.065295018615245,17.66091797719224
1.702969748902044,-3.557852062679327,19.626353901451772,0.4255789394132261,-2.215161201462614,6.941673002072545,-7.188792811548261,10.224180110782008,0.8093801011516311,15.313196039477418,8.034156463621178,-5.959682076963058,16.116945125407575,-34.17403144765966,-2.96161939417499,28.780604816193346,-15.973348385866053,18.632337556202952
-38.63526103445462,32.08552307817919,13.609052435530465,-0.8307640673919604,-16.38401661703324,-0.49128851471466817,-9.305767067496777,9.795850640597601,-6.724246650044651,10.784882645855298,6.640914598553566,-4.4730001823031875,2.4476128495757328,-43.882238560224096,-8.148899230150528,33.1983033820741,-23.96927310540957,18.1421436784477
-38.24949108211734,7.476450375583484,11.891906270320572,-1.6953381229804974,-32.50497872827793,-4.5045320453316275,-8.295082146321302,9.564980462641,-28.617233918391943,4.509658421129934,7.690104710649113,-4.159001772384447,-14.442312166577011,-47.43516889585051,-4.154020448891055,30.291889053950676,-27.95555095624988,17.752851701992693
-22.042506804548125,17.147585493779268,7.24824954789533,-1.484539100677654,-28.995776049088057,-5.684042253240776,-5.3286459052537305,10.703526053171558,-15.650030893208328,12.112621401930369,9.423899556952101,-5.017700929030374,-10.040690612621614,-40.43840273105964,-2.598246848473522,23.772402037665398,-24.12367173252469,17.65976597816335
-15.014752003929765,6.215240746337444,9.736834247885058,-4.00701948176483,-25.192729712669816,1.0483448721669966,0.8630759078124663,14.18812681905335,-23.97578657796636,17.968387798942338,14.088438488388059,-11.150736200642598,-3.5860514652851734,-24.94293112682388,5.698254928447194,13.737545549946176,-15.794142233594137,20.890262675794844
-11.50213964644594,8.371297853362279,2.755847111223151,4.897591855543734,-26.857734344391048,2.215822502650144,5.7878094898151,17.2844263839233,-20.78144691764133,14.459503666184968,7.425701985196273,3.4188384401354943,-3.867546213225591,-22.62895066436802,13.704131880165551,11.222689029346622,-14.19774802491586,19.63170616405737
-7.9890524702422585,1.83804127818874,0.5633185701724734,0.8148580744830465,-28.424385961233206,0.7480839818375831,8.566616042197941,13.644730262082405,-14.660837892134134,1.6834718166058238,6.330488811388608,1.8740427169325837,-11.178103663271123,-20.019871052346623,20.442809395813875,5.290209644609507,-13.182198586617858,19.74354179366695
-12.4834859639293,-0.8843785414669956,-2.4072443940299415,2.983351555325342,-46.00629802102921,-4.8197757835386845,12.715153698465727,15.085681846177804,-14.79373015074427,-6.590125890706389,6.017578568472492,2.5745201290668884,-27.861465880449185,-19.45965531093914,21.910321422017304,2.3855615093674842,-11.087460953145403,20.053854998043334
-29.087125352719145,-8.878172508079146,0.28956502466279943,-0.6088328122585731,-26.28242976153578,-13.315902992869493,12.373936172093634,17.798684259104917,-36.219356996429376,-12.216950451354414,12.444101392341878,-2.2923595927637814,-9.385660385330675,-21.24145316336395,20.15748029810281,1.043920927305872,-13.480176289010537,19.879017298923028
4.993896860326612,-26.928611682239527,-0.33077153105737267,3.710384850991221,-25.6013815106406,-19.75979202964657,15.160243958346545,28.81514787496627,-17.80391269009736,-11.681491444316066,11.254376561644625,-0.3240739290231964,-4.481857262906408,-20.28723771276126,20.067171337624032,3.3161419309900433,-13.719769455947066,19.121344065763587
-14.636602152348136,2.4846704043271766,-1.1432148718836572,5.58927966287898,-32.53728075682342,-34.405544749631005,20.1951328148065,35.537275342833965,-8.962151621561036,-10.062123731244668,18.366621864101784,-7.048213468135964,-4.458476141104407,-25.67935331606551,13.338483456031023,5.5889286522457216,-11.806392717288084,12.409630130986734
-20.30186623714562,-9.99520158611288,1.3679029121366737,5.711450669705163,-33.125152471596486,-41.6279618464801,17.712802815531454,42.75034505114157,-18.873837565360002,-16.636509011614947,10.733615814753431,1.559016520989279,-2.8700654310471423,-22.085708079836024,2.0222245588519936,8.6435825005485,-13.404348196954508,6.1892543419661745
-18.34970534864175,-10.55885654476382,-2.0749164765423114,1.733106247069082,-31.466702195077993,-39.766900797367825,10.545301199712057,36.39168949399233,-6.132023260558565,-27.40086020176608,8.277541611896094,-3.9950302722672055,10.1468465839372,-30.014599381424155,-12.807376296092364,8.378516794759012,-20.759917909769932,-1.1999993960486286
-3.21368416960864,-15.612839081745054,-2.7801494087035667,0.6855970792020682,-39.1832800239781,-32.24042148602753,3.0871977576775986,32.28190756564145,11.489649635293677,-32.9802182531335,3.381098739103546,-2.8116057019372516,5.685607990522007,-34.03627472756589,-23.240049667068988,15.536120217347776,-25.279375377159077,-2.8244685223505392
-11.613167833477336,-9.141324604226261,-4.849438481735948,-0.1655009256970721,-41.23567149308396,-21.00171759695615,-1.341174127958853,25.342839661490572,11.62762724362003,-32.593508863215405,0.3412299660429272,-5.144780191403894,0.05509974708067178,-27.90080756483081,-28.88517350826249,18.495157769426207,-27.548822225389486,-1.4186091915089847
16.804273305490923,-25.129251960044094,-0.5678420146114327,0.54701244737897,-33.32701198609623,-12.398581015001888,-5.571919942420969,21.824621904863577,26.216060727670566,-29.463628565586404,-2.502245110515682,-2.5959952731752254,-1.2758071730078342,-27.038287889880095,-25.445817555246663,24.287021579401607,-23.271473479686442,-0.10751092456586875
-3.216620523062069,-24.41591309189684,-3.7051234457493827,-1.3761545701075695,-29.617748152231048,-4.184922384709299,-10.191018358761688,11.570887935378622,2.324526554969035,-26.325188566447693,-2.610225104942482,-6.102924514217199,-4.068882758107844,-29.300410592619123,-26.88705032247379,27.833542712800504,-23.58046739230123,-1.235003691920987
-20.600902675598622,12.823167078445266,-3.1283247782011134,-5.34906529206705,-25.029750166238273,-3.099164337903056,-15.882106973335471,5.714656596007702,6.067387870168687,-12.240719715446296,-3.107758609246229,-6.974035212721487,-8.324091190043262,-30.097425063123936,-23.44311083489092,23.568262206512895,-20.077394357380587,-1.187797650804292
-1.2660720637438105,-5.991595678453956,-8.798562196828478,1.9097223567938477,-14.97317519745085,4.8237115029531505,-19.52017267364841,0.5449680794485907,11.27244480037297,-16.898375918555388,-9.951969741808513,1.4313932779334388,0.2166325317940676,-28.257599491669232,-19.020323098109316,17.93662176921163,-21.649264833180887,1.3036089778643554
-5.369345555882451,-6.445050341375627,-9.094593640163431,-2.3540565052986073,-15.268646365464736,11.380416596744016,-22.17948630543762,-0.9107555005989703,9.736523040066867,-24.087176275868906,-7.12699216555094,-1.785400641193494,-3.935347723290774,-22.31622664142231,-18.989878583503753,18.26298137338504,-20.97190436930492,1.3562780788446602
9.765661669883286,-14.611860859133174,-8.118075547088221,1.5864493371040924,-15.75982614672155,14.617757856833737,-19.465486377865428,1.6404890992187813,17.280253709835296,-27.557232346204124,-4.691577250757865,3.5907304880650965,-4.080525258629122,-15.593826239800913,-18.56656515917251,19.273851088994533,-18.72907306075791,-0.05326628561682334
1.7554441441830786,-12.816023946851818,-0.30255043584253016,7.578789081889196,-21.134351729294927,9.262179111139046,-10.206317918764903,6.831521396210412,15.83703342625597,-32.386956418554476,0.4793174448776689,12.286264390969976,-8.8127490047879,-12.289835282727871,-17.555085862941755,23.41070100967464,-20.585075507862758,4.887539560417329
4.78016608148375,-15.608590897002962,-4.984286929877065,12.009612272306613,-33.150126288141976,8.98572584938623,-1.6286926889752307,1.576229950462217,24.64551683803078,-41.018004586810974,-0.5988265368786161,13.168214812739153,-17.350725789816053,-16.408372807709924,-10.193653944152434,19.735889364338263,-24.68456998720701,2.2135810809418235
-2.742576462289928,-16.83717240958971,-5.756823149671018,4.91781442750956,-19.38484212527325,4.999163402179907,2.946986084710696,0.5232993845418914,32.67046042816168,-58.62645237818387,1.3514686103300106,4.18576574581992,-2.5455735759445597,-19.94165325556791,-4.685540911496122,16.257374489097657,-32.10194655975874,0.12804862593043254
2.918005500438004,-29.490296557269268,-8.479664374316098,6.811505059377219,-18.706340009098305,-1.1350223722061419,4.594912417573315,0.15707252246749448,36.68924115063363,-67.53646676531827,-2.8496333532115656,5.456408596293716,4.547575557485446,-26.112528545548432,1.4106739586933728,5.064901588037067,-36.88023749488086,-3.419932258860319
-19.35203694080768,-25.735556332164073,-13.250511641835509,9.487417134498713,-29.063865749459303,-3.2644317542376124,14.155053281120688,-0.01071999541064983,18.43994522582347,-76.4398071345339,-3.6316837389770305,12.780857867545421,1.5849641131608803,-28.085100650916992,10.341094441525817,-2.024922121824156,-43.41419493897206,3.190845538385526
2.3233542451205693,-27.54599249118601,-15.479496912324041,3.4727320409908273,-44.01206500935888,-6.760278283353337,19.127174702966418,-2.519162194619126,38.665771888389955,-87.58282454961882,2.3256695755057892,9.361979968489827,-13.386535489954028,-31.133028540871504,15.562626204905662,-5.207392958511237,-49.94613276281976,3.4561579524935837
8.665893729915204,-19.589389353833667,-15.557299365334757,2.2441991322880455,-37.0857448880803,-3.6146650198028816,25.468354554811967,-2.875982928605202,48.83091040037394,-87.39131866353101,3.108170034867941,11.215642371488281,-7.65155415378611,-27.44383116046617,21.665155771939627,-4.6778087394285155,-48.56592650057621,0.20801148523448276
1.7263586846542873,-3.135347365991101,2.72721514459053,0.039991977873327755,-14.925684568584924,-1.1519601432890363,25.951874758857258,2.043878474206439,8.309828225547761,-28.306198034005803,16.391855110492816,4.962733139255536,8.438212721825526,-23.853685571757552,26.695499531865405,0.6380818391930845,-25.113355557835664,3.6027412049420917
-18.788257745946407,14.49175282303701,8.416489748387034,12.97361695349381,-21.575575902708085,-3.7667995456773546,21.749581873936442,4.4278136814326015,-20.884721021120065,2.073313957970587,25.477236490924525,10.427772351358575,-0.7622860830605878,-34.81606961170206,25.966055584881342,10.447320216803112,-20.507163976629826,3.776843544758666
-31.88157328522441,-2.0602411859983625,2.4870460442440887,16.239986324505466,-31.449140244822317,-2.3770508954839977,15.107556605405847,3.5922272869294467,-17.170286856355702,-27.112861530717364,20.793839623922356,8.274526660838587,-7.713545070916387,-48.22155279768802,25.23859864478788,15.570091975785177,-34.161555404610304,-2.004171901137635
-8.939900100408275,-10.407920988395535,-15.744778541403498,16.675119162949365,-42.495612575974526,-3.428162459267754,9.639087050839102,2.955146871248523,22.968900586334577,-65.86419701189305,9.275346755909592,15.202469202550924,-20.91176603640832,-54.30448736949802,24.415437424914483,17.471274867778316,-45.080264938835846,-9.052809119030726
1.2078635772176032,-23.05152850062029,-30.84912207980303,7.345292179034589,-21.706722543778604,5.2870459462306165,6.906647824844686,1.7353150951849017,30.781884802543292,-92.30559668838269,-3.0234808227263095,19.19969788455344,-1.2938325367721166,-47.30318984054681,17.539414632729205,23.279894067013878,-55.60722668849373,-16.29491027315713
26.491805168928042,-12.939921263161452,-43.50965241789012,-5.401766261577407,-19.18093498835048,5.408881922925103,-1.2930613788290515,2.960124397215969,39.960680048359194,-79.67908032257773,-10.92680278416784,15.285668284843167,-6.380134367540886,-38.155447194355176,4.024547085717976,28.40604442908365,-48.35951036185891,-20.703164480328372
19.840869608182583,-3.0227201669800228,-42.593453534144025,-14.339409134132005,-8.550702605710198,7.777317455156485,-1.1903502067999696,0.4771375617210456,4.410928266944721,-39.02021572505276,-15.704190955771281,10.198765186962317,-10.2913525194509,-27.056691894229743,7.015680861991007,28.84576575600252,-34.665560372658874,-13.390798168850806
19.048579984079034,16.172823201797836,-42.846913273839725,-14.68243391711421,-20.285281293222475,10.439160649371916,-2.258071293725793,-1.1237332854878623,-3.209915178499383,-2.75161847429915,-23.703420962992528,7.357010610869076,-25.137030205804006,-19.280555784154934,5.028073211007488,26.161587555834316,-28.490579230657406,-3.733036860251131
11.22409426779089,19.45095906255247,-31.965228243476837,-13.364567903728588,-10.145754242748094,12.417797094308852,-6.6447475618401075,-5.260512776275064,-13.273309324573859,21.50915909229178,-23.596218783915045,0.7056261994885948,-19.080728922795455,-5.647322067529412,0.6007838813415791,14.494049622377537,-20.264253201724454,1.238678029393708
-10.859278584264809,37.47616452494187,-20.300193599900823,-17.417197125798864,-2.546594528090857,15.764002406264904,-5.170604838500065,-5.780769067590684,-19.72437465133468,37.961148354861194,-23.683517492617476,-5.6537609957798445,-1.20460466982076,7.592806197798627,-4.606048603193477,0.48388104724918435,-16.920425790125254,5.918859049254879
5.240651712643842,22.7867240968811,-3.35963090358966,-16.976919572954138,-2.0777526056694846,13.15340923606219,-13.167962451097406,-2.2938790360565537,-8.988584125520125,44.35796691791241,-17.910563705590594,-9.7679937536706,5.444128285844213,9.111426537954618,-5.416608625000821,-13.525131055607332,-15.920138893286717,10.991023017914484
-14.891326845628758,17.082438525399528,13.48520355313584,-18.68449232674779,11.378230623841166,7.125082083664601,-19.894523800282705,-0.8546324524669213,-34.58227663092053,54.37144101820205,-9.597748455018754,-13.199593025956027,21.47126404526263,2.717089254011537,-6.713829339618833,-19.720367504945557,-9.548573404556187,13.818322009730522
-47.4267374839241,49.85589052106752,21.445029518328106,-18.63363755236572,10.184180562916875,3.050160018227285,-22.518269895343384,-2.244303159483094,-42.793590788196816,69.66149176825249,-1.4795177186425188,-20.14783825816163,23.34129664648703,-5.828497514281263,-8.009469721998995,-21.03156188393374,-3.9583085808499128,14.498323270497302
-18.4386804898208,22.179733987222182,26.57454010858005,-13.308709408111705,7.4262014136942405,-2.4894143859640763,-22.211149718571072,-0.31046748428591897,-30.0090842909166,70.30567655583201,-0.2942862338364848,-22.995421833065826,22.675505012280915,-10.763622607985274,-7.44808190152666,-22.048630677938718,2.6083539647113376,11.859041900916488
-43.65158521200378,31.223364502139905,39.03005031795284,-8.3738906756438,5.936335757472072,-10.860885880022192,-20.04745511319205,6.99767113031047,-34.022195011731945,68.80391928591725,2.1611640595630677,-18.71494940116232,21.817681145304746,-7.107833786552565,-7.666475561098174,-25.017705903126867,10.248931683594755,4.435518289784177
-23.552219407893645,-9.245058853187075,55.881734682110384,-0.8994840759367775,-10.398974383967916,-8.880495788110029,-9.288859290586831,3.859540770733754,-28.465223898091665,64.47234569484114,8.621216299488886,-22.44336575100716,12.369263988851088,-5.701229726439433,-11.20380414293561,-20.173018811446482,11.736612117442633,-0.25269653837742645
-47.20444468800845,35.15145747280356,69.51219286539735,1.301855159241347,-9.548020137973488,-14.029015677766408,0.3964636327430807,9.806669433093859,-18.416262561372022,82.2134061591819,16.546734151162834,-21.58281693940333,18.061087315256234,-13.086965571202567,-4.388037719729491,-13.95998677426479,20.352708791845707,0.43106001350310486
-51.7166766292587,17.242641726300015,75.4290688161452,5.652078138582148,4.778175375014655,-13.122686540309232,6.371696282486598,14.975603316747781,-50.16496729081813,93.31544843213973,24.66813036657418,-21.211499455994495,34.79152725242792,-20.280612836012963,3.6009409540198467,-5.109066936530905,23.694550086687478,3.8499311922892634
-55.35091047194876,30.29157791222189,78.71046157184894,5.6080779834102,-1.0146786155054066,-12.704612692326274,9.027410692803155,23.663258933355735,-61.40558568722533,107.93459756012999,28.39545297027175,-15.665257847514617,23.39982948957789,-19.95792169472167,4.071536337914755,11.45793418552206,33.18795344557294,5.8045350583440705
-19.72764977863383,2.9103997243077484,73.78977302066951,5.466755796893309,-3.781725093057627,-11.309963568697011,13.539407640417389,24.44365463386108,-66.59134746075138,111.03127837473318,34.56470399622763,-16.56535614684639,5.956641034823003,-13.486178295352367,16.164607346532932,14.2563035264878,39.4576380956424,13.716759443210904
-52.465717227043925,43.30382456531441,70.23735128412437,2.8842851539429684,-1.2768627311955285,-9.720036432380741,15.903659817349233,24.348119669990727,-72.65583471517682,115.20305295120903,35.753853812215546,-14.341328271786926,-10.01839614696349,-6.334291002586351,22.887647560850283,22.719919912432466,44.16364830170793,21.824695994230154
-54.344839502940644,39.360707713938716,64.73271929956563,10.751445868146611,-14.00824302308046,0.36604148384647583,19.73344314939142,21.521126972694827,-76.08324978023668,112.05106608523114,28.251865292436364,-3.719648218600936,-28.529255200448553,-0.26017121917565333,29.709429315667155,26.692365686780146,43.594852998810495,26.319589937790035
-0.9505698843391244,46.06229749661148,58.05702162265838,11.880432544356468,14.665597813081355,22.463913877675083,17.704366187118406,13.716516566510647,-21.79450666380518,112.31737657974217,30.418348957591334,-5.892037094125172,-5.0440142037739335,14.697201270232867,32.62592268157536,26.27128469632358,51.32554148860438,31.595935493022502
-0.39001269604466415,29.911929391909993,54.800051240427734,13.204900334224654,23.90386266918862,31.47550678242012,19.582141546562625,10.309397633792404,-45.53374214149078,117.95484367956652,26.72567787632952,-1.6199111437754175,6.725560392085131,20.861708986687027,31.24643265572666,26.43720659743876,55.83196421254123,34.43092201855821
6.908069837691851,29.582008614925023,45.97717187406619,13.064621970093617,18.49175623969387,30.525833328025012,23.022921632377656,4.56135034666104,-44.271916963456675,116.17000506204242,24.59579243383391,-0.962008235534789,0.724677517736418,25.06932995520669,28.012337258839697,22.795516814949956,56.23506564627102,37.265886726331075
-12.552908620989044,46.342025745771096,40.27979488375682,12.436127863799761,19.23035296507168,25.571981308794697,21.09294465735019,1.452881841210914,-39.68892473937915,103.73985429563857,20.024675817035007,2.429434499148398,-6.640175485144763,32.78883653462495,26.927536938056168,14.271962784867613,51.46047515877927,41.272615193311495
6.657758544772388,24.624666514171174,34.973372779271244,10.538107785961921,31.19783142423956,30.578973420055686,24.632157167423014,-5.070827198032873,-25.729859679032156,84.66805526553904,18.774083644655448,-0.9183736068854715,6.115689376281426,41.96935775972787,26.7224127884581,6.530674889195674,43.94950116379328,40.78685024266266
4.773557242970561,25.465958365883157,29.47182518149082,12.44871458509526,32.323518680337905,28.651986698389486,22.995802543769102,-7.0995410246152275,-14.308839083288055,69.11070724498948,15.76576082305975,1.5924263907746248,4.421415403901996,41.96614417638824,30.32662738408458,0.15757993348529098,34.97155963080472,41.27731620650668
-0.5294365841236086,23.57248654129023,25.239881173403326,13.28501027606806,32.76379623235641,29.654419225347905,20.187784896947267,-8.148981228143892,-10.210964242082765,56.09092512538693,11.194968698915666,4.493011824510006,9.566371392728763,39.32221122202433,30.415779281060367,-4.847342769325785,30.28832306160662,38.544620362171585
1.4911555152698632,10.838598716315285,22.472716234201076,14.02351993618353,33.39756040934176,27.336142234583264,19.137772952289573,-10.855951439394861,-11.678266994738024,47.56155424967842,11.897693454877682,1.0450096922392529,15.691072498409602,37.162556048325776,26.013218891027616,-9.851323280962255,26.481636928821928,34.053518228625464
7.514999427971052,9.139569059852027,17.45919336095851,10.757880286178793,26.8027997317282,21.794780378186264,18.576152418034184,-12.095450287352051,-2.987721602931572,40.0066050293987,8.303419473927221,-0.4506607653507331,15.471165880633956,31.287847916381544,23.36896819848534,-15.049699754922322,23.746683700128028,27.120294458646786
-19.177184115518966,28.82705877841196,15.960973578733705,7.492003647464264,18.936613189032066,-0.739440441604664,11.373844460074157,-7.4729274114266815,-3.866061387248944,30.203059894665127,6.955156845559054,-0.1893034638054516,6.855814761727824,14.27605329159908,10.666366127037927,-9.700144384307215,17.493417259191645,15.401051650882257
-4.463137399619939,4.372665471908027,15.438807351202493,4.3234913870183735,9.9942931460305,-12.33643888780156,11.10521108096094,-3.726816427032144,2.9722643276332015,13.170061043609529,5.313744452260971,-1.784243012920388,11.525011304558292,-8.989983457706547,13.296349525707036,-10.79512846041758,4.3036851328348495,7.684874426417974
-13.968826964198854,9.800897990613562,10.521368148473677,10.627428840107596,9.155644082655288,-19.734630928422877,6.930179240561454,6.564819800428714,6.882692891217765,2.3840629518524565,5.527591373342495,2.1865207986531416,14.732408681368886,-30.11173665086248,21.39541005817272,-3.1000698934724333,-9.181917072959756,3.483361863627948
-13.709322569910336,-7.428165329440944,8.923464213331663,8.923021464749874,5.5806337558618875,-32.504506501815825,1.2901286173722308,19.788592228417706,-3.2676268235929165,-7.624081793969523,7.498977380920141,0.10172901543793511,10.42319701484643,-50.84708289010731,22.658594965460942,11.920139009620627,-21.010364347627903,-3.9419824299279362
-20.970005760605957,-6.005357056956672,8.496469755272809,9.757244807301257,-10.496534944403283,-41.270953418440314,-2.006352618543005,29.401378097385397,-4.724310021244992,-15.682794269771222,8.102791066045759,3.5826649700428046,-4.332387810415229,-63.87172623098363,20.308531331178823,23.52311982620408,-29.814577103038477,-9.708383742448472
-34.96957441542405,-20.8922038702027,8.751938416116634,11.176882354213074,-10.169194054115156,-48.86607642251351,-9.014107850310264,33.938255652552236,-23.75715749086026,-27.74951026275889,6.167074634419871,9.406635603958705,-2.3855278679842993,-70.25993365121477,14.052166838190557,24.482172006607627,-30.809453742407534,-18.308210257524088
-33.24670641804501,-18.103866854098786,6.6623205754186685,11.033400800946072,-22.44171554457443,-49.52809850655646,-11.529950128353246,35.44998033599204,-14.857531184510812,-33.57048006891752,10.383300907776253,4.389858449925043,-5.0256462581865335,-77.43372250194153,10.43249031140755,23.977094605214724,-28.19440357655428,-22.514901054752883
-25.46947453259209,-28.793218596543923,10.137731622942425,10.010340009882972,-16.55193446840743,-44.72191478661706,-14.436829338317438,32.66694301693976,-15.525872469261687,-31.681149662819237,9.520762633298702,3.5716380025191956,3.0794845562490476,-74.35779451966553,6.519689206659871,21.71488518034122,-22.55549827013129,-27.01613909621308
-13.29801527201641,-21.123888015358784,9.412234233117822,9.76781596358524,-16.426020418261167,-34.54521135253969,-12.168316758246899,20.99917003863142,5.586083653827174,-29.40616039720286,11.58732633284683,-3.009102680100105,2.495934711789018,-60.055595968925864,0.9464743416577086,14.472808425050008,-13.892861716121809,-29.663564996298014
-15.384910445270489,-26.932349211962354,3.313770599369416,13.235494003420385,-15.032639444467886,-24.56450707010405,-8.435468499579224,9.724085536552472,0.04022792041496004,-33.97249435632344,10.235169750711291,-2.0708983692070655,4.454302839938064,-33.84354366607616,-8.533363509958303,-0.3859251415147096,-3.378509294172682,-30.359631255633175
-29.874615020945082,-18.190880094338514,1.8032638165014312,11.526451671489081,0.030718005457123887,-17.12361471015509,-3.3360037443393136,-2.623239016632752,-5.307431996618025,-38.544417228924125,6.245484741845995,2.870584856437579,17.060137982169696,-9.686712831871787,-17.525307529252025,-12.900257086728008,0.39355682018580396,-30.764628927596867
-15.45785562175747,-23.122615305950657,-2.6390998396855494,10.890715011880218,9.623111288008023,-7.534989092146114,-4.584944798985642,-9.402140899996283,0.5785568223693005,-39.8995289932811,8.016766032439712,0.9753503829889754,26.15302252657001,3.82099957315873,-19.974659500604638,-21.898326102255915,3.6733124639252335,-29.8044314650939
1.5954861976241084,-13.504514014342433,-8.646280933653358,9.277400962769383,10.131180282246193,-6.736322810902021,-6.420545164117154,-12.272866421226734,19.456160991901527,-39.210025565746044,5.392536924606462,3.083419861662042,25.092182956023102,2.5779551160385346,-20.764388192902103,-22.20430399317076,-0.2777443977361598,-25.42833394271606
10.152479758640435,-13.84871329988476,-15.63250300246849,5.416887217223836,3.7033713470953042,-8.67286104863344,-3.1787153548108034,-17.19260350441944,20.465660787218617,-36.86683830887872,3.6462429283669042,-1.1569147331734326,17.881537541860062,-0.0367467452481165,-19.601602143008243,-23.583997214383334,-1.4009828739935717,-21.835725733160423
8.650653978746167,-7.162808839421254,-16.273606424512536,3.6060415201361877,7.332107126350763,-4.2624584357371385,-8.140966689578143,-19.864478344425137,19.330077257177436,-31.796029594339466,-0.4448945072455075,1.7311270793746303,18.193118956151846,0.4691414246930705,-23.224767083486284,-20.373289640759292,-2.8215653159941927,-20.393920586615867
11.934039088339734,-6.240005128726411,-23.26526907882331,-0.7451238403741538,16.62276493079124,-1.415415802023647,-9.393112690892066,-19.116665743606273,13.217459414663761,-26.048706341540374,-0.9238269628084499,-4.561285069884237,23.878404113939922,1.556512025315758,-19.426746980405447,-19.310598464591738,-2.391134375474814,-16.903739824769595
24.00665704035876,4.935528677063052,-19.712874218787555,-6.953079679620485,19.17278711258107,3.6768953999589318,-10.353231187399151,-10.749951424274208,24.979840386260065,-17.28137378677901,-3.161804410769001,-2.26043036968694,23.316067305337903,2.4440989568802394,-13.48114102438437,-10.53252533697762,-3.137191144738717,-9.314473734606086
29.340982548553598,1.5586901189295794,-23.09733013109878,-4.177892875643304,14.396202291062693,-1.388080609837285,-10.923720413304471,-6.190360340139289,18.28866110236701,-12.72099208965544,-7.744848025474859,5.8016286735124325,6.349647118646096,-4.094772626748345,-2.84892885824425,-3.511904705882081,-6.622368772799834,-1.7278488411283177
31.74572357679662,5.114147711500166,-31.758628412036344,-3.064334140613063,18.6994855606843,-13.973607119978704,-11.495266302188886,3.9371804471711966,23.222623990675583,-15.49289248569126,-10.864381077023026,5.171558307691098,5.401455070732764,-18.93902243533261,3.387639208013541,7.31772074226426,-11.381908569420528,-0.9800069327767449
20.087954469075044,-1.4882351639520888,-33.29440949665458,-4.198427923104724,12.941694280353428,-13.864553709736132,-16.07189012179358,12.601242824523409,15.855699264177005,-30.187268250669725,-11.93453259630434,7.3729834681629285,1.3305141487902858,-31.443954890775547,6.693349278869232,19.026584736453472,-18.88078210087813,-3.4577100750784537
28.05965283884671,-3.599827285436681,-36.88467452754907,-3.6739435640383213,10.40425519773104,-16.00257595086861,-19.380126728514664,18.53220468720242,36.61830585318452,-46.745647358119626,-14.764030192447095,8.792579159204486,-3.9100824882700245,-33.89460474539581,8.0446993067103,23.31374513249632,-29.900354753867934,-4.668799077798628
36.910590321050805,-10.986430095672326,-39.69752263632996,-6.862136625165995,5.032362166646312,-11.793813613005973,-24.34976000797381,21.339362981136826,47.8146684312767,-55.89081520650007,-18.376372417726103,5.817020156829299,-3.484356333552647,-31.466826657675746,2.3634079732918494,22.815926544730793,-39.557840940367534,-9.886887104330789
25.449095459479295,-12.124455242927878,-40.36591897930966,-5.36452218611063,3.173741686084439,-10.125141553580479,-30.980840458452732,25.41724335999776,39.09317665952224,-56.9394336224668,-20.037218652572545,5.477674666643349,-4.814360559788975,-25.918452676326847,-3.9051920149200345,22.123008285076054,-36.03675343226403,-15.108100279719602
24.144441686173924,-18.732854011254577,-37.62048628003146,-7.579747478667711,-1.6170440596549502,-9.531713812801932,-38.199182217227765,31.156403627937053,40.82549548700757,-61.02474608695467,-16.230966450945477,-3.3584290328941613,-1.0641198595338022,-24.085515726176354,-10.663520300852882,17.621619424807,-33.10693079017146,-16.035589719933522
7.117386676624909,-18.995059722905737,-36.539600110987564,-4.718698290523446,0.9140403182993091,-10.111207947858823,-44.93059817134139,34.064514138307885,33.28486673170643,-65.31493415129836,-18.481305390526774,-2.62459863768194,8.352244164299357,-19.522594562355703,-18.985888577923284,10.09298731337855,-27.936393593305162,-21.068010908990075
14.993609398935995,-23.946414236127392,-28.920183046978465,-1.4690293421918876,4.419214024045344,-4.246339759364966,-42.1906229824429,28.965640685257384,40.495197272767214,-61.89997161514144,-17.120195432826723,-0.8170474511713431,15.329069533177336,-5.003004614204357,-23.012908087939298,-0.36526486354645016,-14.95874351654745,-25.224907023526708
16.62035003622194,-21.282056794988755,-25.211785619919933,2.364490884539996,-0.08606308490165251,-2.9724531705727433,-33.49498075994106,21.230884691659067,47.80792630076142,-59.764615896166184,-11.85473954217345,-3.6975723565807024,8.53798737930099,6.777760994345243,-24.795466054013847,-5.842894643395873,-7.260208404990664,-25.674289560299542
18.833709865247172,-30.63120488779705,-13.500335397354227,5.316911581908093,5.269547022963466,6.698912169900691,-18.06245374990693,4.805391756289273,47.70350537880087,-60.7646038079754,-6.1030347168936165,-0.8167856919414639,13.36993770238722,19.72602614250016,-19.450749114942415,-14.93381753070496,-2.790064175430535,-24.955343710690848
4.543643974178801,-34.12250095306264,-10.485477278134137,12.075718851637124,-3.4401307654240014,14.318359136182497,-7.904986860352708,-11.131085204249363,35.49445782141392,-64.41188069248827,-1.330023023746258,2.2588304894248905,9.219063514227258,26.810448878163456,-20.260282480880125,-23.92707360535995,-0.4741619325019393,-24.728332946847516
-8.18310598445396,-40.056858900266874,-3.9601644988286324,15.414153804139538,13.922205602359567,13.245142579495667,-4.585145515766174,-20.328525533644296,18.895837182540188,-61.81982041037205,-1.0514589085728852,7.189466556978857,27.72639746305201,28.519334190276723,-25.07566727036989,-28.916387250519065,-0.3125857041444249,-26.165229942668475
-0.010247650456582047,-35.25048687876311,2.2667809506568224,13.378974849266896,14.094147734696442,11.194205219995627,-7.614681321126838,-23.079977132248352,22.81045648565931,-45.957287948095484,0.787361913746086,2.7444908193772037,25.727141960377523,28.661351072529975,-26.865616394911726,-32.92918213668298,5.11657095417365,-21.453493147643645
-5.801534382125145,-34.74267697243164,10.538975384715055,14.466317952233856,20.611181130754463,16.271120765963516,-7.520832526839044,-25.733267669199208,7.003413257507681,-29.031717068280006,0.6706854248539416,5.818700368292802,23.924660229252325,35.830398520261504,-26.411460731481462,-29.71539631735568,10.246737273877876,-12.351037384560277
-1.337786722465221,-33.35756606260273,17.340571430294503,11.840053268334144,22.437950919723146,14.608471383780916,-10.163101339879228,-25.8470279977168,11.3191490909343,-23.348193160124012,7.973579567408987,-1.4592635846769757,16.850039951838962,28.834765422171735,-23.127321509178124,-21.521190898926378,9.120713755019985,-5.303346818908908
-2.2441831877415073,-36.368666211307975,22.476085645947656,20.344068689968978,18.500191370705338,15.58138134694018,-6.947643199613551,-26.253406656270833,8.218262015639521,-19.727092596225823,5.801180482126688,9.914955035307786,7.139960118769718,23.78799794313263,-11.056142928698725,-18.991292271443086,9.45338675115157,-0.40815030368350946
-15.844994407627071,-35.475060574466404,27.80084794818776,19.56780738321512,19.149592005371932,20.166409198917346,5.055238733757488,-31.249417929703085,-6.986741630227936,-17.77798211062786,11.92712238777838,8.886201702367373,8.564081038660468,24.694082927984304,-0.9403414040677127,-19.196000554232647,8.998555362245401,3.311060669796177
8.446548835902421,-36.047912895603915,31.55685273518406,18.105060840097536,23.507201900665958,14.300821394960087,3.9701764906525305,-26.186474092447053,8.282987819907321,-9.493118396131578,13.655824943106126,9.61485514867846,7.938525752734053,14.072304768527651,3.7043407968915663,-10.123445624319638,6.779571559132961,9.467555829337059
-11.401995432793056,-32.5207169935352,35.79474719390611,22.303492078849537,19.268114227857534,4.5276674275278275,5.715348698970109,-10.869332474158043,-13.746949236675423,-1.8063860214248777,16.749021092692143,12.979841011815548,-3.330669829031443,7.254948846566096,5.221627213593209,9.495891649073098,0.8432121707236497,11.225228958272542
-5.272310169627551,-31.924812146215658,39.44013181278487,23.276156254275506,15.31915148269377,4.030722964563721,1.7945000935726068,2.4947171394068945,-9.696610321898902,2.5476196877639694,19.644113708991185,13.024042676340782,-12.05979459049075,4.242035575791014,11.033445293697582,20.42340540124412,0.8575273740192042,13.369247182666214
-31.661322242604435,-22.834221744512103,41.125634915144,15.651786817613214,12.343885731761809,3.3371677886721978,-0.175096347470177,11.561817309768609,-31.32453152097854,7.865667162265858,20.973821624736274,4.766920479596916,-17.85830214480719,5.717189718187562,12.838827766091459,26.370059143267078,3.990378893141777,14.337026803272714
-12.833411209480715,-20.971817962073033,35.18694539060557,18.082921003393565,13.564990059983641,9.087708614894607,3.8104970684631887,12.03495643823551,-11.344466645145644,6.627944791516825,18.980233237429545,5.2009258386245865,-9.300322167528869,12.94998257971245,17.278443068422902,17.570048700978433,5.2611604681439985,15.202745408172781
-7.676135302714178,-14.228014088533387,36.565536515822565,15.823148689891047,20.34964030014981,2.9226704761368705,6.622236737853051,12.605603056312072,1.2194590149511413,5.767993070140761,14.053907802309816,9.443175927044482,2.090446106230523,19.98331273666325,19.664663275856277,0.7617284517112097,11.017566008883982,13.134273306115546
-2.0290633917798098,-12.075581076551147,35.69079010399879,12.876345699447995,17.170223090592643,4.178265877318024,12.361720233420073,12.297110164170345,6.855591422844078,6.262236959236368,16.93712565752243,4.4075372954934595,2.2512016396485173,36.29000168737319,19.70446029245404,-12.238344253963728,19.59935706316396,13.405075589265046
-16.59557788018662,-6.018262826711442,33.1484943560165,6.996292392791895,7.640042028841895,6.506721431402498,20.345316902906006,8.667965455356775,-1.9556611701506625,2.3487240169085126,16.203860815340374,0.9340223797930736,0.16636957775463834,47.70969773936915,13.589128932495981,-18.305150431100223,21.43602057412553,15.819786282654295
-20.515774728533067,-9.33747646858068,25.03218294931507,7.362724707269877,12.65782065487486,11.958829155147411,30.3776858199299,5.429095103216001,-7.342881122941591,-6.753946732177074,17.322877078856894,-0.6843927642854672,10.28920808902933,55.80494523322103,14.20943916565627,-19.88016175472464,24.43778133624337,16.862678659080235
7.890422131032976,-4.064159512422677,25.209099906730223,4.991038970518019,17.965496045687512,13.112580012234453,31.618793394551417,-3.7673210442512275,24.092926815838943,-4.737064965831696,15.899507308666774,-1.228967662833159,13.381054636590015,56.47413940759289,13.362090723485206,-24.28773635943068,23.624044835737337,17.510284485218456
10.32139914375845,-10.315765396892804,23.718002421365505,4.080426562794941,24.246639558630548,15.82741735585165,25.045193596063896,-8.27665538632185,19.0108448288979,-4.882208796810975,16.718912818270454,-3.043486119348057,20.1841726166017,55.28379156628462,7.140725579158367,-25.766094637803697,23.487019770497163,8.58273303914245
7.38299628614141,-11.392776853342019,23.97675997964719,4.728453991700007,20.075262868212903,5.8452897936952,18.762456422777667,-11.712309353674168,17.352930539264165,-7.09183905837174,14.702824118941182,-0.2684821957027381,11.850529943355244,42.76112079958645,4.822782346745098,-26.463733358656945,17.678908134287184,2.0918857366075283
6.887889023325341,-20.088311512659494,22.078913587626403,5.079533255753208,18.049181876552982,5.139167243185645,15.797950387010099,-14.172004643277615,12.47849638174427,-11.854356091818737,13.366853881481234,-0.03296981737580884,9.278794620398372,35.50796257087478,-1.1114298923398491,-18.861032435442425,8.54345328257293,0.47914803193699207
-16.847852651463263,-17.945007593644693,18.31728924838695,4.254654130156319,18.168364224705584,7.751905657787172,3.651464327897087,-14.972199884002064,1.2625302764461317,-25.029328962397685,8.609312152108654,2.9365696672650947,16.082214575114946,20.145225876012613,-6.462671417996691,-15.165234706721794,-2.0638875980122715,-6.411920479677672
-7.1826844622473764,-24.103730758544465,11.226875959599385,-3.2151069385302353,20.432777838365794,5.4802326830362995,-2.637729175509018,-17.238004367240674,11.830493813839265,-32.65179845464637,3.0668942349247805,-5.520235793851979,27.3778143499461,-3.034096906151463,-13.281796005413703,-5.024644459705723,-12.287654743120846,-17.897748381415084
6.488468100393959,-15.907831441455565,0.1239271076346462,-2.1928897931358815,13.904724104326425,-2.5547938088199187,-7.659562276675739,-15.500644996296474,30.2173593987227,-36.28437895720267,-4.530012898613043,-0.8912935694798025,22.169091453445425,-26.022052146998256,-15.514063073371924,7.556746789483348,-21.7372518653016,-25.970431032795283
9.224024331476496,-22.556917706944308,-5.6165540652267385,-2.9328460874128,12.353913097205375,-6.489764811760377,-14.050811275082511,-15.52198748486364,25.95393815731564,-41.005356385304225,-9.689214249673526,2.8583389495465616,20.378136687070793,-37.88095421624326,-19.995551764258785,13.789718818955855,-30.608026445718203,-27.504948041894192
-15.968409823309502,-19.538838229760234,-5.4087581514630845,0.2290848765160325,6.209855510925698,-6.22704561233451,-19.370048916308576,-4.215952347955666,4.606744125957217,-43.299128369778465,-9.871668176239442,7.877131092037591,15.461793539605042,-33.23960885584314,-34.245943379435246,28.42056733002746,-37.6304571467813,-30.118627632065188
16.264082389339496,-21.50219324109555,-5.209941398368654,8.464708542624612,-0.1328805252521672,-3.622156575928255,-25.277471951350083,0.9366686309604035,34.04792634673417,-40.52900502455365,-11.425185856852984,15.92292082716805,4.197269024394085,-28.602155769130537,-45.765080426287064,42.07412674948193,-37.82402574910037,-31.858336656402237
-12.439629116105396,-11.356815266374669,-4.043657412624762,7.80888150918511,7.290732332388106,-4.534585687899,-30.796517056313853,3.5491569741022184,10.3696657574548,-33.28099469261336,-10.541171879003278,13.421280528239913,1.6237680195075388,-28.16785956446136,-45.27550873306073,47.328386840321826,-36.55993169791772,-24.813816952108105
4.953388854948034,-20.84140482271616,-4.058504239315648,9.58981603002723,2.601364218688097,-0.4681334067613801,-32.313860825939095,-1.7497164140581694,14.920873146436115,-27.707589700720504,-9.661124500007011,12.091136877234861,-10.81376664421838,-26.565526478240475,-36.48825143166586,41.93719812608515,-33.83819591462242,-19.72743583098165
-11.929134840990018,-5.423965387977532,-0.17640375296223265,8.72922506016817,7.08837461132802,-4.215987815125674,-32.95456282583687,3.985598179529865,3.462602301696588,-16.28919155173609,-6.538968671270519,10.565278999550703,-16.513605022272003,-19.9864867564688,-32.587130290116846,42.99064421878517,-28.096312643913542,-15.622628877835835
17.968772039007767,-41.76575405212145,-0.2100959727648677,13.234959864346855,5.907760081333586,1.3119312120562365,-24.417725931831704,5.813416192873859,-6.915035348649493,-7.912694894220543,-6.545931217792549,10.601543339135574,-16.061778667974757,-12.23937455508421,-27.810363318410992,44.726898095935304,-21.87339837129917,-15.81976932029261
-24.10465570118811,9.100264127486696,-7.870692125730612,6.505122411995383,-6.702311932650261,4.787301143053749,-18.61760414674397,8.616575904866446,-17.481586672836016,1.3281767666808548,-2.1624153329561673,1.9458639516818557,-23.911717366615363,-8.304717107791017,-21.181395616732626,41.481791059699525,-16.243700631660438,-13.09219151924894
-11.096652495375176,0.8828668559720185,-11.732349858803683,2.8953196069171616,-22.83158924699599,4.0616267410396025,-12.038527467799597,8.879351575476255,-17.3970418947006,1.4723079951995786,-8.818391135048016,5.692309143269084,-39.28224247600844,1.192645934828482,-18.852685140357305,35.013143283293246,-10.035336090640513,-12.127471196200426
18.808649687595185,-0.5965549728783053,-19.41248213611721,-3.161019232431917,-24.022782526748195,12.123362211000877,1.862565092323086,3.281334619500347,6.229418188249278,1.4065343533761379,-14.794974902942213,2.7976157074968775,-31.508905811902125,13.030026202941693,-13.597577278052736,25.320936283126102,-0.41623699277024073,-16.24597277308966
-19.35093992188975,32.88516108574669,-25.05172962305666,-11.761629842837294,-20.725292212667426,18.816077064575158,5.995562420305685,-5.931390642801075,-8.028930569731845,4.060576387080644,-16.869504155163646,-2.4412799642072027,-25.299196701014235,20.859687375591314,-10.78726374152294,13.381729696396125,4.996289050592733,-16.756155699008545
29.01682313778363,13.240810373522436,-30.603347889656312,-13.43378783610698,-20.556442890531912,17.206045958411057,11.591099026649847,-10.457958240820895,21.567431638638187,0.059286498383670505,-19.827248879615937,-3.5789714718453993,-19.676617584091368,21.361282784604857,-11.30067805762847,7.398756710862081,8.253053517194399,-16.490089828610177
16.546449434297553,19.963871612478048,-30.98923076672556,-14.232347821186782,-11.406694165996797,20.67235322186416,10.738893308407977,-19.087604922032412,20.212664098801124,-3.1753445112979293,-21.422119485493532,-4.326457643125787,-6.437996826896079,21.46852816235127,-14.747201012748176,0.6336171195759661,10.818924246142025,-17.010291472174988
23.805613580882195,8.522494753585157,-30.31109507141301,-17.868376867103947,-11.440403539034996,20.328118163233167,9.786694647929718,-24.398380721193746,27.36047899165894,-14.139530405677302,-22.044783013954195,-7.027529176053477,-10.974424028400708,25.38072218446499,-16.146297510666997,-3.9839720944220627,12.596248024099875,-14.215125101131802
25.793971610925063,12.022734270532137,-29.44794747820871,-15.45509169946573,-7.376134563407399,20.177281530473497,10.199366318785657,-26.292664292856067,40.0811262259626,-20.333063759345226,-23.160139237004675,-3.6742565258033313,-14.43803106429565,27.92202012611144,-3.6813885747586923,-13.094751494019334,13.487374416731125,-13.573410825058607
25.538949440853706,6.831498639113491,-32.50149524327958,-18.125543821123415,-3.7061578069643923,21.196393883538093,9.144831901939071,-27.602564567993074,30.44447120281456,-22.048894065392634,-17.639204329402325,-9.012963792425701,-16.633576673580034,27.529913291163783,4.4831805915466525,-16.34701379856764,16.324387964324778,-12.448373445344306
18.353009937152223,11.406183270993662,-33.71000890769644,-14.64916020967396,-6.485265921248045,17.623621488469634,7.404352214544593,-24.421804448008935,22.669609551227378,-21.923749562813807,-18.56814415994651,-0.7776917376587651,-18.537710913587144,21.469999741520017,6.589567140399275,-15.400952634530888,16.908018681778504,-10.547020672066441
22.986471983679177,3.773880011923435,-32.48761416742493,-12.155020876708923,-3.0179636269898538,15.12308600699894,1.1692751179181498,-20.852039538920977,21.932374599487822,-22.496693759130956,-20.478151411254963,3.160187522402778,-10.677704026358391,17.84788633593726,-0.3896204169801081,-14.358203933547564,11.331972566198232,-9.920143148960348
11.313937549775257,0.8294620520326088,-38.795467476552915,-4.295435507352944,4.449612002319906,12.620524858714763,-2.529041559110021,-17.967533494423478,14.267679674033197,-32.45922082992212,-18.779335826651625,6.023373600481547,5.5791662649146385,7.972048277889309,-6.88392314191691,-10.093729593340008,0.18221442325560488,-13.399790638851997
13.6093355326649,-9.24357233113404,-38.57091594099389,-2.105789271974191,-12.89157947268639,7.869782440810025,-13.261055016620618,-15.572997322337624,15.30073047324916,-41.166585478272665,-17.96397434530462,7.518887338932968,-6.193504747624193,-3.0792982092125794,-17.776225717752688,-6.806820696198386,-16.052945916110613,-17.763230244121804
5.848889613931323,-10.233952831974465,-35.915640968947756,1.8358478746816531,-13.146372616267897,2.238039429972967,-11.00692641508989,-12.69187807387186,8.429675608576868,-40.31782128712214,-17.934427450443913,11.35771681672504,-9.569445854080428,-4.759103778755048,-20.17570223542482,-0.10288580694873461,-23.70140093196143,-18.42051796618729
8.54075126001644,-8.87997754955273,-34.931318523498334,0.5957205753941701,-6.568833150521495,6.565277228348454,-4.751164976718905,-7.859332056580897,12.990709274107438,-40.26458337094325,-13.905481400989363,6.5045312602328185,-4.646378834482468,3.6162488540948585,-11.738560866841999,0.15463789180529286,-22.860781689224645,-18.496668574268156
-3.3154367033210184,-10.064447073783189,-31.321053397165336,1.0098172984641112,-17.573396981236183,3.5660480495242446,-0.3532314994140755,-4.298085057589679,2.323227325763593,-43.15526989409788,-13.494452731541056,10.63537542412097,-18.377902138256587,7.8864001826205765,-6.722823789450976,-1.4443397435793193,-25.054672072471217,-15.843176206287001
-2.6684577080353282,-14.861509765962461,-33.77642423669235,6.105477180684366,-22.331574191284545,-6.3690449156446185,7.655711793508274,0.04265715210982002,-2.088111166726147,-43.813941797333214,-13.869277039214847,14.570415473322413,-21.564411721002458,6.195865684580343,-0.6362252951015996,-4.997478829737123,-21.982131943750154,-16.417124811067747
16.731804397904863,-14.481881955657235,-34.87547692361342,3.382461278907748,-42.132748558364774,-4.489743276558645,11.072419755413478,3.014408023952095,10.596656576491588,-38.62717722467825,-11.22130975975549,10.008737205540985,-37.350850295994135,7.529169738070697,4.177460251874134,-6.8914437494575065,-17.54943591530237,-10.648015081710051
13.380829058107384,-13.906021142294733,-26.12201650491638,1.1416319704484428,-35.86300561109606,3.5397764180585396,13.607892210495116,-0.26573366730323755,1.1190700903713235,-27.594884149731328,-6.038844120704059,7.009081561468537,-28.432017434710787,13.155875014222996,3.811936338992581,-7.516864568298573,-9.901049176124326,-3.711663949153799
-1.7836996228926196,-8.836899413185368,-17.770128397645713,-6.378860207080773,-41.21822482442338,12.54362645709551,11.258168164885852,-1.5945299225390333,-21.927040913920898,-10.814621822783721,-1.5445872875351796,-0.4833376165019896,-33.675747987162985,20.34157662316975,5.591548220254666,-11.268336981189757,1.9396461620450225,-0.783885874730931
5.516100547507611,-1.032268739001296,-12.554246254586289,-9.413281223823486,-26.65494553090877,14.70916032408758,9.101457091646546,-2.0462260115013624,-14.791062704955454,0.9713631945216576,-0.9612436302740832,-2.7027525291299526,-25.054322750816254,32.01601841068782,4.633425239666934,-16.48567502616087,11.820255675947966,8.291772295980984
12.428331965849942,5.015702094778344,-8.228253176477768,-14.504736773264977,-27.329941163697814,16.579419523750275,10.16515653849362,-9.921737931341063,-8.137581905603202,9.22804811660722,1.0823664168044438,-7.46178851685435,-26.00564949792428,34.89775919324769,9.72678192573867,-29.125994653802472,20.522087189213636,7.108860756899247
4.694976337806741,7.939891798445345,-5.57341637621937,-16.184427563403993,-27.91093106718547,21.377082661310098,13.472697311019633,-10.474752965430392,-15.345767443623672,15.127443088307217,1.7541750586608167,-10.658826506644155,-17.97480564815785,33.57672409733822,11.203521444634085,-30.341343954044984,27.16626961885845,6.995730202026827
1.9452493672423232,5.787232354614016,-9.960910996903209,-13.378149593576946,-32.59718016076728,19.922295657115818,14.727147642026075,-11.713209811328987,-18.4466559155144,14.763361809832041,-0.31301657961100204,-11.610268183256075,-21.76293579571129,26.881031482821268,8.575376019757847,-23.35441837976553,26.284020752182798,5.413334470626001
