Fp1||F7,F7||T7,T7||P7,P7||O1,Fp2||F8,F8||T8,T8||P8,P8||O2,Fp1||F3,F3||C3,C3||P3,P3||O1,Fp2||F4,F4||C4,C4||P4,P4||O2,Fz||Cz,Cz||Pz
-6.012729642882511,27.592167306973273,24.288821370733096,-4.679308001239852,-0.6436163657736582,8.00732043433199,15.206174194349718,-5.2436915417136944,5.666738627394909,10.732801970497064,6.78519658365922,18.00421385179946,-10.682543313264846,8.076309436376214,6.962006710648659,12.970413887356429,12.799438733499644,3.1792912541511775
9.514656114337942,36.648835590643664,5.370463751381813,-33.33966415217806,13.273678821311691,-30.144926974707886,44.00474579133602,-5.579788041897501,-0.17244666237881567,33.05902433814587,5.1681488667487985,-19.86043523856734,-39.14679518055995,6.630131102629335,10.681249130775846,43.3891245431178,26.79699570083946,16.737787284988695
5.70573644220106,34.481986943083946,26.688133119104375,-57.70380122826214,0.14393409434192384,-33.045680788980135,18.313986764201992,-4.353882232630884,-22.514284977651123,47.37786752272539,1.2085014059633488,-16.900028675150807,-27.66896161566739,24.912335632750036,-1.1238224473819178,-15.06119373284833,36.79248251017238,42.895845716344084
-3.8650004610575053,57.90874889084241,24.276024302796124,-40.759446012539826,3.8154614496237693,-3.917709298072806,16.65083653003377,-51.66454400902815,-27.666759889859417,64.52937183390391,9.945637769036917,-9.247922993284298,-5.546311040003952,30.988815863254047,0.3558055340602193,-60.91426568483527,50.59849206661986,27.64881601744478
-13.2403699577755,69.72167706753908,36.806615845875385,-25.476013434446124,6.319221287958433,-2.527611154879086,32.667655352087166,-69.77636004167955,0.48375087570463826,56.09516485549168,-2.4099287820102724,13.642922571759005,9.447501776988567,25.836121820036933,-11.931082612428849,-56.66963554119212,49.95299896915411,-12.10843416341736
-3.767681086127058,44.72522407155898,34.88494025033633,10.021822085469942,11.463847936754412,10.38296476942619,22.0279394457738,-41.8923452735299,12.913155904193108,40.23961495710461,-10.46709474060927,43.17862920029826,-3.4885676188994177,21.27081145254716,-6.636375873689876,-9.163461081616614,37.88336345842073,-21.687492994346997
1.4082443777018607,23.740469569341347,18.413350907847583,35.36249623098108,-4.3838514156321065,-1.0264311808515156,32.8770616487771,-6.880424769178749,7.863708900235045,22.138609750397258,-13.639822917898027,62.56206535288244,-21.11192267806893,8.113027359418979,2.567816640189732,31.017432961491032,19.76072981961783,-13.783790674446331
13.02982046136104,39.09226438740956,-7.3346242151444905,25.545621490236243,-18.56730294961998,-21.91188004644622,65.89872965231376,-10.737536692527215,10.628856387414576,23.179220342336237,0.08387910553507005,36.441126288317705,-27.99258592024304,-6.703561942741409,16.65804490281973,32.72011292380059,13.35877361586002,4.5713901051423935
12.053850359419688,40.58466331518622,4.223765818473282,10.649776905281962,-14.582372702997986,-12.624395289456725,61.228848679596055,-23.678210763706296,7.341289803256522,32.423804446773154,11.758499714835102,15.98846243323413,-20.028877640547748,-2.084916802343212,34.56004438939222,-2.102380023151124,22.68142733770219,11.99107734590357
3.460941184040026,50.28844306169825,21.349763274838296,-9.71567226696786,7.473255199387905,-10.566945658725798,43.770238678408305,-39.55014756064809,10.403631303236214,42.64571246321118,1.8525803982856446,10.481551088610079,-3.8614695330726736,1.949092670286067,41.03917628238841,-38.00039876126474,29.4666570235352,34.940590121924664
-11.18632107838746,33.925858337589325,59.8639288186974,-20.023147962213134,18.595203251550686,-2.8487619515374263,16.159751005713808,-51.32212558883005,26.35903716814658,26.110167896257117,-11.762423384776119,21.87353643578971,1.0758026976922803,-0.5586901965419777,22.228008140360544,-42.16105392469932,34.495686355555684,19.219952469201846
-11.575064618653563,66.8887999449804,68.78892784437068,-32.08923816193901,7.455142574793271,16.29191187945165,22.441114885949368,-47.86129570698752,40.26595929739482,7.329283739698755,5.2891013605939765,39.129080610798994,-6.486557111098861,-2.967574716024929,9.474639212825556,-1.6936337525805794,21.36197509054275,12.779182840546282
-3.076403630535215,90.09444429394821,55.9373843341411,-14.56580848603099,-3.3880222565803324,8.280219826416044,55.680715136492545,-39.324193421409866,28.5889668264511,30.44437725747471,28.592807472440214,40.763464954882195,-14.927223622182161,15.035212320470995,12.154175223569986,8.986555362974052,24.733979445018928,21.18483861941062
19.387925477071132,67.89781908204478,12.227132300425051,21.609475209430318,-9.735044225322266,-5.106208651751075,52.401100883873134,-26.687523830225576,15.254288890894752,54.34155706778955,32.26948104846953,19.257025061539814,-8.425588945876093,4.913736248059067,27.33684464845809,-12.9526677741522,36.99435255670927,31.643820117944895
26.911292252538864,31.647155284811674,-8.239437239276022,24.092066513519324,-2.0155030520818276,-3.847581263713236,48.93102743777387,-43.643332020076784,18.426346181261284,50.79775198158119,6.84640784850784,-1.6594292000366018,19.659126884154887,-11.066077050485788,28.557358607545872,-37.725797339398035,47.596013800804414,6.8509328765189705
40.09953995646434,-10.35654934911718,21.686529659732756,-6.532084546805287,21.52839985135629,-7.768461444861179,61.28643584125941,-66.07027784332455,52.753878902692676,25.086494177791568,-29.804959849231516,-3.13797751126053,42.275783058079035,-7.220281817050379,11.030444561397617,-37.10984939808108,34.27295222434866,-10.224357234670615
37.95631395156663,27.825599700522897,2.491797263182864,-13.621483802598659,39.0212874449335,-9.739874007343962,33.02121956847351,-10.178138749949646,64.91583822541902,6.895749385069854,-37.156574810731215,19.997214312631467,54.3462297916673,4.341521267050208,1.9049090421397796,-8.468165844828334,13.04098955175736,-6.007566255226797
21.067619517615825,44.04368273108294,9.47048404475386,-17.195961770313858,46.7521198064866,-2.730499064447276,30.05441604467667,-14.348047731806862,51.98256728215645,-5.239337234299093,-17.063849814200324,27.706444289195034,47.37429581683804,11.705046018471652,-0.7724499126081525,1.4210971321236059,16.51776193622195,2.6065726621602296
17.16831299137793,74.91942199023754,1.0203929713931998,-28.095520048382777,38.76372641371263,-0.6077705874465305,29.924803379979846,-22.23160058167209,34.559922588495084,-5.654606921265497,13.187878589570165,22.91941364753743,41.28221160114165,16.139800213301246,0.26390190415024506,-11.836755094102632,20.093468483665003,11.614145811763743
14.441865210553091,67.81535838651388,12.786598981153944,-38.99581920536879,23.552279685865443,17.624693305152068,39.566134939060944,-52.48153407503691,19.19104405901991,-6.654926504426353,34.164802693105784,9.347083124862191,22.690917523826403,18.23168651104276,6.6740951211269754,-19.335125301037195,21.228956319503272,8.90564474308082
25.486181269065998,68.24005476031172,-13.337253916695666,-10.34546418509492,17.035937679866443,28.43134770575957,48.04079308389167,-67.79269636762118,11.34483442558596,-1.5019048558723256,39.32393556849979,20.876652789081415,10.93669616310338,29.699589037259447,3.2234694639856727,-18.14437256253374,4.103618736534113,30.614482259633608
30.08616476456831,58.810482352469265,-21.295623801802144,-18.80576930821396,12.280944640883964,-17.993281584269905,62.282522042189704,-53.125896777271365,0.9626136843307922,5.605180916929028,29.54427757632544,12.683181829142372,7.777436085953666,33.551015436186724,-8.33019039052883,-29.553972810159944,3.288241847409882,40.41202554801442
23.066010439780833,38.94073672941804,-20.268339393632388,-29.317592784134884,1.2793070527400996,-41.472213738380546,38.83366753682328,-18.344664708059288,-9.709424972250273,15.93588584447106,11.173661524739924,-4.97930740582434,8.720929671126932,32.520336013519994,-10.506205410035191,-50.438964131567865,-10.905182253336157,32.536511968796944
13.11731127909475,34.99844274322834,-34.27920605746927,-14.048464201128187,-7.570470873836939,-11.92688562577006,17.245649812035317,-5.734895592273093,-4.753006798380241,21.286962884081944,-7.291610526987469,-9.45426179528512,8.493706527333325,25.044979701977006,6.265824706188041,-47.791113215421596,-11.327857630320686,8.550506853468145
9.322290352876355,25.596583322950508,-44.08965034320543,-1.3191123413737813,9.560035403066111,-10.706212525310677,22.323565761035482,10.777936972311778,2.355161099315346,23.318595499020372,-17.159922097859173,-19.00372350952656,14.615459345329597,5.949038288434859,39.05610776643984,-27.66527978917873,-6.476064331895323,16.892288217098102
-1.4051371665935388,18.450140971148805,-54.973191568677294,15.315890878826522,22.00622882382333,-46.20877465421025,53.77446848636659,-20.56485573170008,-6.9398329485996975,20.37060277429308,-30.05246773854359,-5.990598972744056,6.57810849471559,-8.458694318229458,40.89120904771464,-30.003556299996916,2.5759050968770527,14.201855723381636
-0.9005801579215005,25.571031783488564,-38.60908637139451,-22.15213358423024,20.392897082588604,-51.343715840107684,52.71076245439513,-58.942420968004086,-21.114318730224745,19.181368271940137,-35.32447835586971,1.1666604837968357,2.5460385157286667,-12.514118536412731,14.896112818152003,-42.11051006867026,-7.609865043897745,13.077091481333067
-2.445440726718031,51.9398076136747,-34.74403613642408,-35.499315929764094,1.7902361356409209,-40.36907410559609,35.44130751503952,-46.05316668489667,-32.16030676710685,9.887458598611136,-6.217658870112926,7.741521859076425,-3.340171070930273,-17.643239902818767,10.387912765251915,-38.59519893138796,-23.26369204135011,15.178208020219056
4.702682186951817,51.85264625840396,-31.561455279211607,-23.944372951151347,-24.8173163385487,-27.347568581438424,14.856938128268197,-3.5771861503844526,-15.858624815489069,-16.59329880238799,12.24784562655572,21.25357820601265,-13.13128984412866,-2.6543792843097584,11.93661923781353,-37.03608305154971,-21.045435147614814,12.009010183864147
21.129783753792935,36.93081208514977,-50.93667834880218,13.879926317134938,-26.812152108178417,-3.5876614724379463,31.680940255914944,1.8828707738278148,11.579592840155133,-26.471329600935817,32.37698229587305,3.518598271880945,-5.733203954039524,25.518712811242878,17.979640102164392,-34.60115151031101,-9.646692799671726,28.96053590958972
22.90976544923478,12.44780950461923,-33.00551115411529,14.886705645015965,-18.843011714688345,-27.78165215148389,57.78788867950175,15.83544378513859,18.22031362532814,-22.96934396268402,53.77919083472127,-31.791391052913312,8.209433899919752,33.67235335161705,25.098884627769987,-39.98200328090671,0.38543915964925546,25.79781900638693
3.6949210493831135,7.798597946034697,-25.620246612021678,-12.23247092440047,-5.402233259763314,-64.47977492189163,71.3024492294584,-9.571823106080247,2.5987177420504874,-24.544660449171708,36.121893939765826,-40.535149773951794,5.356463775157168,7.8414337396212375,9.368135171933972,-30.717414745055503,-8.136861712339233,18.536748831869353
-24.209828228549334,17.514316872413147,0.7117528289390918,-42.867826459875225,3.1583782191857894,-63.974230408608264,70.27146247549781,-57.4442002864309,-13.800447840781079,-30.806654664620304,9.67905911413671,-13.923541596110585,4.946499382921984,-21.602540913529317,-0.30598992111513645,-31.026558548697786,-19.197786411185152,1.903824610338896
-35.80405587350286,41.008986081112255,3.0210818217816913,-37.56560630971208,6.838735615999497,-40.91366633514787,32.03832391098618,-66.84331344463033,2.128832738810072,-28.96217006557491,-12.267794260054295,9.761537306195319,6.2959743782341295,-40.20627739288172,3.6937389725938683,-38.66335621080186,-31.918475785586395,-5.252995409811557
-20.247708617714068,75.45049074182621,-12.149190443800768,-33.33806516068675,8.763796987795784,-16.294479856439626,7.970991982594789,-63.25788439707683,21.479908154197787,13.215839363035595,-34.699145560396296,9.718924562485093,7.6470861865216815,-32.24693205356698,6.816243156149806,-45.03397257229185,-9.482022378800405,4.390630889281718
-0.7832854271761889,57.165937387225554,-20.18931256673474,-10.06767856303521,11.570229172157205,8.711456812400002,-29.958321561440556,-20.8086597608507,33.51046452743708,31.07794063143091,-27.14571586238804,-11.31702846650234,7.0467156459683675,-3.9746529151402594,11.795862689890974,-45.35322075851309,20.572030511204495,32.10426294043021
15.753214143483268,21.507374603233842,-10.845220662721418,2.557631575683775,3.6366664310324577,-36.502378085103445,-29.30743095045701,41.46105724926315,30.99386439316552,19.93655243413712,2.4822804992602254,-24.43969766718434,-0.1926742536366195,-0.7026841324883346,18.53486198600104,-38.35158895519939,36.07531535007601,43.610039968398695
15.78740552806141,-7.599110974063763,10.511911009934,18.209981035718634,0.002303574059949298,-56.71965985177369,-17.029896883445417,53.921257863619296,26.43033155012921,-4.094808618850243,29.868127441625425,-15.293463773553977,7.120679473587875,-15.59503665769627,1.642149641443666,-12.99378775493202,30.875334100590724,16.93497365961288
3.518611912836116,9.593114943928931,14.780077612545513,-9.595681312244043,8.284344656857524,-24.49853175283826,-0.8407088761723926,-15.752806149469148,6.3431286702126215,-20.019739614883857,31.6716848550447,0.30104924639448427,2.0332727693299693,-11.248848765509992,-10.46395198251351,-13.128174142984003,2.725898506504328,-4.365583455604206
0.8222064870131751,28.649708505729365,-5.950995817524412,-28.22179939129772,21.256014738500323,3.5195523710542282,-10.134878270918563,-49.10232847201901,-0.3610246045808534,-24.71320475878005,10.822743276072968,9.550605870911223,-30.0058665970303,20.148446064341535,-4.0137825287104185,-20.590436572037504,-10.481848250045898,4.415774529036627
-4.020701137603195,50.74248447718131,14.921271741900117,-55.24673136999166,35.40153051737853,10.732815803722524,-27.919993254851306,-41.83039725952805,0.3607758922899649,-1.1827697955646386,-0.45158618787720606,7.669903802342931,-38.60531484791322,46.76037195476075,1.5586857991681953,-33.329787099346134,-0.15408471710932403,27.84911956159509
1.587774969636948,72.06270696604844,10.696646276562946,-41.84157126139185,44.763662714566266,-20.73006514685181,9.086123501986421,-53.41060125684386,23.743161698470146,1.3520511054412312,14.059936701609182,3.3504074450421717,-10.776563879102293,34.0160364461975,8.792471484333564,-52.32282423862232,-8.96730263199845,52.65299113064913
19.991457043487966,64.19188377728958,4.324699468560092,-6.463595232253544,41.724998011813724,-50.92702838843611,13.186779865951095,-37.26021973049421,32.67621340657682,-5.585142441871019,36.48599937621775,18.467374715868687,8.069564590386097,4.767298468201167,12.999919464254692,-59.11225276405648,-22.46821529508043,54.022312667743506
29.705677738407687,29.27838972491339,5.766523807880631,11.238191675856616,48.649046880415504,-70.9711695969551,-60.34531374663908,34.84381655170982,9.581557416970918,-6.076153075361248,53.349886066489965,19.133492538668904,5.13993280322675,-8.56352427684719,-7.596730554104088,-36.803297883791835,-9.894692877082004,43.187711022952534
11.10126578157957,18.20180644330339,0.3734615151318189,17.318607468662577,48.445590374998126,-55.764396020470414,-80.45351768472335,50.9857233169497,-16.43878228959747,-9.300823182404663,52.73740333308609,19.997343347305844,5.434947163867001,-15.058653349472209,-22.528348525434218,-4.634545302252512,-11.677097514988477,24.4461108405607
-6.036134579864058,25.004905453787785,1.2316532566470193,5.039306780129191,49.51307736797119,-5.892597039044915,-71.35700204151084,24.642258170983226,-17.357019062296324,-4.712132152925072,22.343725266430248,24.965156859205937,5.829583617017872,-10.616515036147204,0.5296920930308247,1.162975784452648,1.4818357740682155,9.125791445418216
-3.5421511625212325,27.714583707836766,0.23551033653487397,-11.536956595309256,74.01969578523237,26.983343348128017,-43.21222517108548,-29.147293949639845,20.59660152032573,-5.103259758667662,-12.733061068210919,10.110705592811406,19.99594808463058,3.59094682319832,21.928262866572524,-16.87163776180943,6.534823982422395,-0.6247979652782654
11.942521239995212,44.983353039064205,-8.376769927756532,-33.58203588813011,74.21068937065064,-1.277809453307885,-24.242330124384278,-34.69818804041129,45.468172616251735,-18.7751301931288,-34.230911894386274,22.504937934156203,23.910257443066083,-0.5617474186374132,19.01068171842356,-28.366829990346748,-15.952078727017337,2.225676318474136
17.370686515416956,52.49431478181373,-21.38247787389371,-19.396036045156038,36.80448197043884,-7.666909025675249,-5.462863673817903,-41.91352951797525,35.968315656528006,-21.410982892731127,-11.387594153672339,25.916748767779318,9.56459657648028,-3.7384151748061925,10.038859333047995,-34.10386098179211,-28.771328064693023,11.720066137538186
-1.9062867647533004,40.579226637700245,-22.570424147699057,-8.82327474279306,11.606395483120515,0.8824156690919587,-16.56184035425654,-44.4455621282372,16.023183648769567,-25.315710278728076,19.27294082379593,-2.701173211656691,16.412710681816932,-7.306314186585464,-16.60856237311073,-41.01642545244135,-31.532346867873144,11.647158252456716
-13.563657981882972,19.980309537077773,-29.909628191147643,8.976297680777094,7.4054989729886245,-8.34510450171047,-77.85213427429602,0.7727839729603261,5.066671475237452,-34.49329728019174,30.406567868524963,-15.496621019017407,12.129904543211127,-18.492165968053712,-24.31001806667988,-47.34667633857343,-46.50115272415266,13.53053532367639
-17.60139945318102,1.6350956326119643,-17.423126135921436,3.826480151485743,29.377523253617095,-64.06076816199092,-38.25728819080344,-2.9396442714079143,3.880043607548984,-37.51780629541695,14.981970366912767,-10.907157484317274,15.46647961407188,-48.038369989704044,-15.507038606917686,-27.801248388072892,-60.20102931747032,-0.40354426153000844
-9.72254386994279,11.520405010279099,-13.236341912205358,-9.526367903972403,46.27186031712577,-83.84136255961525,-16.138552467508863,5.746226797496,21.83844364461777,-30.971234822659586,-15.965487740725237,4.13343024266119,34.235069019530556,-60.98350259823743,-20.375953116819684,-0.837441217012703,-45.87380661680719,3.2438315555052917
8.119779775435987,3.9322726609620204,-25.259547017319136,-16.042913887545513,38.84980256367402,-74.71816188264779,5.789421040547864,-1.7833047277542136,32.47662259149041,-18.36928032279966,-37.82601798229774,-5.531732755120675,31.52105946257106,-39.260928400909656,-10.400788890933235,-13.721585176944725,-21.19558526454813,15.29279804356081
8.972060088602545,10.511660150100205,-58.86391149980856,-3.1252688400147797,11.798787224980948,-55.92965489137097,5.260593189826459,-19.082809013705337,38.9196247972911,-24.614685771054045,-57.826256493113135,1.0158573654978866,-1.6600501140412174,-19.10171470244144,-6.187416443248376,-31.003902230573907,-13.412923323280014,0.5865295785760871
-8.532887330301303,2.4493845013620543,-44.321803060373284,4.909830202516522,-8.025442824536285,-14.58493099130538,-19.482952258774112,-35.019281740298226,27.4953614385811,-31.73844666315767,-39.83280408646085,-1.4195863760128251,-13.744963317794728,-16.228802531874287,-16.32980411832428,-30.80903784695651,-31.510380321337074,-6.69480590608843
-21.347812763920302,17.92946929906325,-25.579198771251864,4.44908680155628,-17.790950013765276,-15.821611219868387,-12.971698341818968,-40.21755502283972,-6.093115068138612,-16.791014212487667,0.6267926070099854,-2.2911187611873025,-12.936922150059132,-22.536643459314003,-22.077752830422636,-29.250496158532272,-49.31572820059238,-3.621519186808559
-14.238086619277176,30.681826684235272,-12.499524285592353,-13.4919715907647,-16.228321700270126,-2.6074810824126757,12.977686434481388,-70.32267637047057,-18.583434610839884,-16.10108839009112,21.36442262244597,3.772344566838332,-9.978271276016294,-28.25950659503772,-18.15783138526172,-19.78518346239196,-54.81711008435611,-10.01817628131322
7.913425317613873,13.655104150550265,-7.6218746831614315,-19.030037439003735,-5.193193870079703,-39.39655232604976,43.13051014869538,-47.4037387846689,-8.413083803696232,8.710801512093097,4.606408754987721,-9.987509117630168,-27.623258810658143,-1.7563263731783643,0.8987071924952621,-20.3820968407976,-45.08483779516748,-3.228227960130287
23.915013747874916,11.674043436492525,-24.32535419002636,-13.336965154731182,-7.146986482315924,-29.116932148887308,85.00633182507615,-76.83341087515974,-0.8754294200166299,38.60137443577225,-18.396741925844573,-21.40246525054254,-42.336365451150385,28.749768955340983,23.27519022411651,-37.77959140963016,-18.068141697270608,10.498182286636949
17.36019772921354,-1.6291085451695935,-28.722720854051857,8.56782780364712,-23.066417331759723,-21.769282174636963,70.34230164118563,-42.594261830077116,-4.8573394461231985,52.76950939657952,-42.273824763070564,-10.06214905398484,-32.04693940402174,1.7343626408862178,34.90881740582894,-21.683900338018386,-3.3573588641513865,24.422620703572722
5.339100277146942,-12.875406673343008,-9.095039845447644,15.726874835977803,-29.31845422934299,-18.525391875080516,36.05295342212313,30.703995771216974,3.176686364338277,26.312459684344397,-33.82118043693558,3.4275629823518217,-7.497330974590321,-22.352443744448536,18.221110235256333,30.5417675726616,-2.710369365783418,21.747904810478317
17.34437649814238,-9.36951179798897,-9.09531516988607,6.480030516687133,-19.750800869921054,0.341707603587011,19.931738201810585,16.496970924284923,3.7927411650542666,10.89114618736653,-11.6914109227509,2.3671036170526003,-13.903074160573944,3.267368640804005,-16.826926572896152,44.48224795238919,-17.68973676485958,25.52120868958414
25.93421809740603,-4.9789916388100295,-15.344430838697491,-8.723291765712096,1.339460585785222,5.7301168302676615,6.15800526745865,-0.9366642706106063,-10.431181223334526,13.341586376718116,-1.1778458167822876,-4.845055482643655,-24.212976697286255,35.81967182061273,-24.04326615890749,24.727489448442533,-2.2010464490186603,31.15256462970659
17.631872729319966,-2.536090594945847,-24.8149916381846,-1.9529441957159754,7.682256298561949,-2.4577131747060825,-2.5339278267680427,-15.053796854859797,1.7164663001915095,13.057972034062788,-4.428931609547385,-22.017660424458885,-13.133687104222224,37.901514417613214,-29.20963553426133,-7.921373336942128,21.294383562443386,9.051622195023384
-13.42210909840869,5.283350829032223,-20.514545911674944,13.509653551923051,-14.004008159008002,-8.401118273764062,8.309182986811079,-28.49113956895323,-3.0267156310678196,14.337217953496499,-10.409321199288014,-16.044831752491238,-6.153880259770758,13.809800987829986,-28.419808040811844,-21.82319570220322,18.61630733682555,-16.269582172304744
-23.37938800835639,-8.962664206631608,-7.814264971321196,32.97696168959581,-17.527363377414677,1.5720967062802131,29.507406417971694,-36.56107290414435,-3.85965003962545,24.796601361502493,-29.37305618234003,1.2567493635307128,10.9844676791164,0.16614897480274404,-16.98629437975103,-17.17325543151802,18.378406711818613,-18.54117377238076
-9.896165024817726,-46.34854331657216,34.28226914724659,35.64791196938443,-14.020933198302423,-0.17509597770755292,55.5918031182047,-19.829656989947537,8.397467848750663,29.787433994453966,-48.62461059361635,24.12518152543731,-18.84842903209398,16.013783511269043,8.997133593019006,15.403628880009109,21.85019710756538,-14.072053574881153
8.374943872814342,-73.2801967466841,64.36817781226604,32.753173482396676,-7.293510626366528,18.58447164197392,72.20657726707506,-21.754535147611456,16.556851903953024,36.53636063922406,-36.81583149972481,15.938717377128482,-16.35449474254296,9.789384540405235,10.564956909248977,57.74315642791451,22.976864219077385,-14.874182857885096
14.148530257184525,-37.608564269629,66.72056731581003,16.577812222591923,0.11566239559645553,14.295562034357658,62.16385653205283,7.3721347029886815,21.595054655160393,35.37523630104339,17.967542314046252,-15.099487744501406,5.868411115661399,10.10663760953583,-8.474252370319366,76.44641931007128,11.016022968202464,4.73636401131551
4.397214965287116,-20.48740088148113,78.44938055348402,-1.452190336348631,2.7376122717974347,18.501740528907042,25.951817579435723,24.385684925290306,23.12141932506357,21.42114452363002,46.97447723741936,-30.610036785377105,16.86277231673499,4.465320639227373,-16.18649213784664,66.43525448726703,13.507123137278956,16.438781674707084
-13.652319232935781,-10.979212351897601,61.37044189449553,2.5893363578748945,3.5019317190917176,12.452836824207445,-15.335581627646206,33.38779510941389,7.073204637443689,17.916597298568753,27.64604923259082,-13.307604501268537,27.95687243104208,-14.947215927935137,-11.302289763119465,32.29961528503028,19.02417689589389,13.78759795877722
-34.53122965644148,-19.826522285191615,37.16376948003225,29.678992197838177,0.650642697402823,1.8131160443160645,-12.576613474672413,32.13239258093766,-17.662762561929576,15.877051682198925,-1.0522910056686712,15.323011621437413,27.529424376678726,-16.587551353014618,-3.8804695081744676,14.958134332444057,2.5667712171115262,6.646182774288388
-40.36814137810238,-24.861195188056186,12.860719457670674,58.918041492481855,-4.058553309408385,19.200379835614925,20.36120560450871,13.490518351939077,-26.379102263642608,15.595449382749294,-30.526651557873443,47.85972882256441,35.307273904187916,-23.99122929006647,6.567181299758705,31.110324568722433,-10.571770088563872,-25.688967060916703
-25.596555468060107,-45.61494974549936,24.985284496558652,55.14971663596379,9.296385836828945,21.157050376274114,34.64888665888569,8.712705857023348,-5.403759760328395,6.1340913636298,-34.31177568468283,42.504940000150974,52.75526757868491,-19.482225986256257,8.12634336980313,32.41564376672727,0.01899043371971132,-40.7367971976508
-9.845670685826008,-58.74775567531634,44.14248165300954,29.897647898774082,9.074216579290017,35.125069143916214,16.223594791687646,-6.908396161016796,13.42681215509857,-12.311739628874843,-13.188917804454258,17.520548468681106,49.01353817926444,-21.42022271220129,-0.9608965470176658,26.882065433777264,12.366031656168627,-35.860611511671614
-20.459647995573494,-55.861215711762426,45.527240738669256,14.11935388254223,0.74363782257665,44.502736634546665,-30.129562367462462,16.237401557525537,-1.0402356565857875,-12.397909644597355,16.728400766916387,-19.96452455204574,25.83990187899383,-31.367768331680352,-18.741456473176797,55.62353657299401,8.109669460200111,-24.8302143841423
-27.945844340093373,-27.97098475402545,46.22966104815839,-13.76751299957186,-11.7891740510372,18.625638452832973,-41.12849204821106,31.372098892186784,-21.460766451884922,-1.6440984787122996,41.37746951989803,-41.72728563501867,11.945709313669198,-29.305050024453703,-43.94585747693505,58.38526943343393,-2.007773100490798,-20.829463837582114
-35.52696035853839,-29.179616277781317,30.722155635801155,27.292982527207062,-18.465603598654074,11.205647246307644,-47.43784857755893,40.74188127670309,-42.17066219235439,8.230730770020635,40.1525075768504,-12.904014628011339,-3.020786746812332,-15.03677510003258,-32.92116023864919,37.02279843223323,-10.857308758647635,-9.795708404852043
-34.21847993780191,-5.580201462831258,28.497354737713763,64.74114844825539,-28.270293160983556,3.101960962579076,-11.264211413838257,40.73346961214756,-46.568138273699546,23.574296487937612,31.99911699801784,44.434546572899094,-6.266450918753524,-28.114349986528854,8.08247054642406,30.59925635870302,-18.829595650443785,-1.4947851543984605
-34.372120298515284,7.670311348048629,23.051091982811627,65.37335995080866,-35.832195625454055,-7.443145376636141,31.942534020454108,54.19883213003854,-36.118092287000884,-1.8055475369814182,24.827573356152808,74.81870945080428,-16.73691514845933,-31.62316947150901,52.79503467373741,38.43107509457173,-13.131496417937138,-19.364614652602928
-37.55040286309395,-4.6628452194807615,-1.7301690133347574,47.93990788512815,-30.799717374258893,14.824885980935068,34.134653067817084,40.21943238921982,-21.269934132932605,-34.50988966906295,-0.4053859322579205,60.18170052329534,-6.892728846369158,-19.020184425396533,46.23515757697919,38.057009758436365,-7.337462979094896,-46.80344382720419
-24.514751254118504,-39.064150319017465,-15.767854489759486,21.229991509711272,-25.770831864449118,53.1090364014475,11.132572465628174,0.06487722087627112,-14.23091320674867,-42.897657921420965,-1.99991098203075,1.0117175568414112,30.004458170777113,-4.758758765061248,19.360277272595656,-6.0703224548734624,10.857354430064117,-31.17381325595609
6.4926745284448515,-63.79499395769223,-0.018716224443570795,17.470665623273504,-26.116837831925817,57.60397008396402,-24.75896024612208,-28.47123229646523,-22.61836525176731,-16.031221505163348,26.09877102825634,-27.299554301915997,38.289698393192246,-8.663431053633694,-21.3842597098621,-29.985067920311856,18.991650610628476,-1.4801339816363148
25.881578958552577,-52.48793947530692,13.387837306632163,50.23635457906252,-25.294787678195117,23.524568328072462,-30.180036608597398,4.22129081692221,-19.771759325332706,10.053677106555401,50.10107301753006,-3.3651594299834837,14.642591294511945,-11.690958243643928,-39.47452155638341,8.7939233636497,14.233326638923367,14.445076172193977
33.94493399873117,-22.52621529746927,-0.060299469226755775,58.295651726765676,-23.01182705572639,3.2154892154611643,-31.30305947892394,63.96229175717538,3.4886999549021427,-0.2880738260932012,36.119748228924664,30.33369660089785,-3.7293032081088366,-8.86081086108097,-33.933992505301575,59.38700101240814,1.4652455516584713,7.324270387703938
21.600567512237053,-18.539556740335772,2.7039232614520046,49.754143886645124,-29.912766319875733,29.78281473400457,-21.096800298475998,72.3326586050707,-2.056520683677374,-4.380078654289999,15.112287417422763,46.84338984037526,-11.94313887610347,-0.8566073843677344,-9.059673369821342,72.96532635094496,5.590107587949742,20.810397421707812
7.7940776878984455,-8.691685880592267,-24.413962186381507,36.037779053906455,-25.196621239454963,31.936501295930594,22.411603601853187,26.012080691517205,-24.590866958119395,6.17619130262852,-8.03843721726481,37.17932154742056,-4.334809217826798,6.950463124257652,13.56601645420534,38.98189398913695,24.264103949054576,34.9812176610793
-4.251834585485166,-15.736998726098784,1.985739213049401,3.376806326678757,-23.219191707894403,43.75920548045569,33.5960219518807,-33.0065622208516,-31.692001428691018,22.10321360407248,-23.957299358990163,18.91979941158806,4.349322926593034,6.454795787471223,11.1887661356328,-0.8634113461812856,23.795291701602775,14.679884535493795
14.955462501304396,-14.968226679617619,5.6323166829066516,-33.97075566050348,-19.293015908296745,21.305047982870057,26.81201371462302,-33.1400961673414,-21.016170614669736,19.474804656473204,-25.417644893354318,-1.3921923045227462,6.589565869152098,12.500355535084118,-5.54678656071199,-17.859185221745665,16.39086621909627,-26.909866604077518
36.02098224019551,-10.194158279010516,-18.55244863162309,-14.968832566434838,-11.758019532381658,16.918679698845196,21.786313716471085,-5.053002231537424,8.120197398530168,11.963010713340498,-7.048318676667682,-20.729346672238233,18.206426220963614,6.434503270303445,-9.784817516300965,7.0378596763529835,-0.9765841497759595,-37.24823052631452
63.6322879837834,-18.407373910622116,2.772389142186703,15.069369183943968,0.06929681007308197,52.08490400695391,-34.70467484330471,74.69262535335606,25.540828666026286,30.03700925453746,25.584165638776426,-18.09533116020938,42.61787602619695,12.866979586959708,-11.193495911087657,47.850791624929506,10.85367311959532,-16.628238757752882
52.18320563548695,-35.018090238118816,19.020103071297253,39.249043854510674,-12.620202485447537,68.79512212945755,-57.405872886908995,95.54827163184734,7.12422916153557,36.977452499643036,46.502824816128566,-15.17024415429115,25.23318814442394,30.6258824614442,-10.651792776599333,49.110040559597984,19.361589728012607,8.19183030506319
16.322385464421547,-39.61596679256972,16.420933719435165,36.573758994199835,-15.060461624656817,58.064919112513735,-18.191978850525107,28.11900239008191,-8.359510456060935,22.530240238563643,9.124890558582802,6.405491044242327,15.467127172587324,27.777122478352204,-5.815972162864835,15.503203539255633,20.640835679625198,13.383431223590435
9.468599262062746,-36.20509483641316,-17.232355008449098,27.942251107311318,-12.232122442238767,15.988080730941263,17.506194345677393,-6.4995403980428925,-8.800862542513647,-0.5115010303883611,-35.08403621379323,28.369800311049165,10.682880740354058,-1.929403392906429,5.46238797572463,0.5467469130794935,8.929584365708271,11.934987388871699
12.57857431998816,-49.00471447077719,-22.173245189986407,17.651439380785508,-1.8891513581147432,-10.559584148482521,14.043445189011756,-19.537954054099863,-5.039868334127462,-15.448335119298486,-43.44755306399388,22.987810557273164,12.442917872701507,-29.294037803668648,4.042323927728294,-5.134448368533622,9.130540041191896,-7.481854262229474
20.378777974421702,-49.791855913409606,-27.992051558044373,16.248336953758816,10.499526415910356,-7.905900098936652,-1.2361846860578805,13.515895550394958,2.7281246686055978,-2.748751240031435,-29.63777547300724,-11.49839049899591,40.571703616744564,-29.60937875929818,-17.693513072286216,21.604525396061675,-4.342644217187467,-16.839376632068316
24.470628568059425,-43.6448352907975,5.741510440995738,5.861553251234604,7.9413750436110355,26.293008650097427,-5.090277881213805,37.1924518985982,5.713887901272903,10.340704058548354,8.200759911379574,-31.82649490186278,31.29867612750165,0.8355622807155285,-25.1743264241628,59.37664572694769,-19.868715850239127,-13.012585428321286
13.037522238949675,-43.74755764227763,28.245395709878302,18.425143922808072,-11.126215624900997,41.059889947469735,1.0161756896422807,33.9133601459153,11.534693218063758,-5.184354852536902,32.56744531987924,-22.957279456200528,-12.153517982914238,23.17299981259065,-10.782854165547501,64.6265824939048,-27.291287894503263,-27.642640873566723
8.540720627226083,-28.420111228896896,51.72680120932378,-7.585293850170274,-19.261504141010814,3.7771449782790363,11.418904323498598,73.60159908324675,12.084916393350452,-3.327168880856437,27.251058487508942,-11.746689242671835,-29.823086299866766,10.351735523200812,6.828235221605819,82.17925979897933,-35.69254767199554,-39.049576058203236
6.194974604633152,-14.26441487690916,25.208365729259725,-14.649378719149453,-10.800422296942676,-27.35112855379026,35.68824491016892,64.06829732105706,-8.944316879149614,10.15041913951013,10.904188532768957,-9.620744055445556,-23.077298370868988,-3.740998443155653,20.529888254427494,67.89339993999403,-32.66997914038102,-41.08100370073099
10.68783458694866,-18.761303492313324,-23.18450269356775,1.334485840968938,4.295862534512745,-39.336368437130105,41.01107634595151,9.805744645883902,-19.423641695877574,3.704923377353529,-3.7776994170338867,-10.427068022554675,-6.6625352345759215,-15.687184276481982,18.11485063363763,20.011183966540457,-36.485596120765315,-28.95174379587753
31.492079029998443,-27.262211888098015,-54.19341387130545,18.49093660534984,-5.2232014987015205,-8.545320589382843,30.024038523381133,-65.7481691308175,-3.1419046843041647,-5.573586957129787,-37.107458236927236,14.350339754158057,4.186532337187792,-25.0961935426087,2.9034504217270385,-31.486441911926306,-29.07273256286176,-20.923841900861326
35.50171048751447,-46.40795863952785,-23.872406270633476,20.022812057412082,-40.724894867746116,-13.201755696984016,17.863963503486012,-29.974202276969912,17.341924814476837,-2.6458546911609115,-49.24077470276268,19.788862214065222,-7.913237686819576,-35.77668008609223,11.810279980001734,-34.15725154540496,-12.384558612731713,-22.954467187971318
31.60355860031244,-37.13553635344646,-10.445351412053821,18.2349565576837,-36.29031216422091,-14.828446788611814,7.753440592762066,33.04436002586425,9.117157134782179,14.050609768018322,-24.84543018459739,3.9352906741471285,3.425516050357828,-55.4436068342119,34.28827166758902,7.408860781956138,-3.2182203997921786,-14.43788237371437
12.082636047260433,-20.832075210188272,-2.9746041739634803,-6.013578445207241,-25.22080901477458,-14.597211205885603,-10.268734160980348,65.689478634285,-13.85118198398844,7.210516050866133,18.30481822271797,-29.40177407183876,-1.1533418057995668,-60.36614389685384,20.336632550029485,56.78557740516439,-32.62889361580997,5.797760681023361
-2.0646699898619847,-23.37695788240636,35.64975484795155,-49.988408198701165,-16.305645308464257,-11.43374009552339,-45.77313196791111,106.24301368623141,-33.59409930934484,-2.755701122803119,44.56484515677515,-47.99532594778866,-18.427172726365317,-27.49706511058287,-7.583385380841872,86.23811953201724,-37.82266520517327,1.5213967866759095
-4.490634402364554,-34.51619966290176,13.434112547599613,-37.321212271502,-28.88111389627861,-2.212913904335979,-2.371674083943679,54.50814827731799,-31.361339531445385,-46.121973442744924,44.364140042681406,-29.77476085780237,-39.80216324008676,-0.6846959010250746,-12.166551864155057,73.69585739791978,-29.541899991001923,-10.95817390826616
4.41408284534687,-28.858862626447596,-39.93359998671403,-16.93855111760499,-34.431211983760875,12.967679635914136,18.46913873724713,-22.228911662709365,-33.61818086227364,-59.41080128786055,20.534723468306872,-8.822672203734061,-41.15691990911584,28.567187369327335,-16.65543372983251,4.021860996203959,-6.907691307489231,-24.902608647836963
37.24730027380282,-28.866298057363196,-63.61263255114861,12.526750786692402,-11.568948830354772,24.439992380483893,4.54198236926815,-84.41675987287852,-15.07129907663095,-42.03626885713345,-4.559837784902276,18.96252617050935,-9.503032341275086,32.91441799281111,-25.44465213811314,-64.97046746701339,14.552367540850291,-40.604920828437464
44.9848014734531,-13.737474944204614,-82.40807300352544,24.90238613974702,19.881102935576514,9.840468068315197,-27.063143017190697,-79.32019660065012,-7.361832291740154,-14.018242644765655,-19.688961138355868,14.810675740191794,17.75651531384007,8.548344857384773,-21.346465830212964,-81.6201629550714,34.34997555992181,-49.56892610267229
30.946917900791966,6.566452944710633,-67.02262110224694,2.023982309783257,20.95345657721184,-11.396938697470292,-51.63893115045452,3.412517298964322,12.752731481174095,-8.560383153812154,-11.668911026563805,-20.008705247898426,20.894789276082054,-16.014971001552134,-4.653867162021555,-38.89584708436856,35.29735847564847,-45.44690928669802
22.673099778129448,24.91640961407809,-36.987846601994256,-33.45189789352626,-2.6877844527425943,0.865165665972258,-58.24781463513767,57.139146927985024,29.647123789482002,-12.967212084170253,4.949248112369515,-44.47939492113272,-0.38125451061681837,-11.57586426315108,10.863385259417585,-1.8375529796853023,28.13685593464133,-14.078534885646334
12.350694675808066,17.77682197703573,-3.5344112757076163,-55.25535512594219,-32.68300754927711,17.134204079980222,-31.26465195795768,61.0586096360758,3.476956745080055,6.062532994287372,24.30598891883772,-62.50772840714902,-34.74338955652707,15.322597551937953,5.28309710100436,28.38284911229235,10.134039647807196,22.46551207560814
1.4445348291956357,7.315942526983989,13.903772986571248,-82.42968123371817,-45.59439469659564,13.09345773867085,-12.682365596812309,57.26140610885463,-29.722093346618895,20.01276598450846,35.561237501632846,-85.61734103062709,-47.81616319594362,38.11751018873568,1.847797087068681,19.928959474142214,-7.87109262263495,44.4583333724804
12.611181514051939,-18.087551189279456,-9.08775042089021,-51.59503507379507,-32.14449728761584,5.735429949167709,16.053923637777377,-2.397716142427754,-29.715067260000726,9.840202582616305,32.66014746258308,-78.94443795524853,-29.24792730166478,47.7267048164734,-3.9347823278011367,-27.29685503022145,-15.331516189527596,30.903481158443945
22.315084432346456,-36.75368914754023,-28.074731301073562,-5.232565433999332,-2.3920963683550447,9.22054757952206,-19.080439851178667,-37.44876709265186,-10.955340164548705,-8.243996305716863,8.473635503097928,-37.020200483235925,-5.504002215709971,37.90008695619948,-17.435826406230483,-64.66101406703882,-10.78237607770684,-3.0621275962666097
15.712231754384401,-25.63528992277916,-26.846006380118148,28.043978432914397,19.931946266696666,15.540928504191543,-58.51432020527313,-24.84450912303972,2.2402810843756615,-20.665427717783245,0.795177050035365,8.90488346763686,8.96219334101789,25.727761864782703,-25.86217878668273,-56.71373097665952,0.795771934986524,-24.723181760335798
-1.0449745368802716,-2.1154735226274504,11.981480444534217,-4.2076408373212075,10.608482965007664,29.57951030917131,-62.598757531494236,-12.3395673741242,22.46961545371817,-26.349878365659162,15.09353383140521,-6.599879371895833,9.951302961917639,20.389557653350398,-25.991139670137194,-39.100052576687936,2.1174968829392604,-17.575554154630574
-3.639793020040319,8.414708280146492,36.84442065138398,-49.54524717415727,-10.537990310649176,12.17558778901751,-46.66609653987469,25.84771022280249,3.8334955964548865,19.82050692523833,23.63383424415003,-55.21374802864734,13.38146432213006,4.697712371538633,-22.900915188800205,-14.359050343690459,-12.383703341119233,11.83765661363666
-11.213176770708206,15.623335286424563,29.38313724511974,-53.964140096930265,-12.159361477696002,-17.920506346808253,-35.61913731569943,66.67010459167552,-22.31997337597349,41.965644400164045,31.494205719689962,-71.31072108011186,24.037832347954954,-23.88687515782526,-9.169518751612726,9.989661012836434,-16.730880767014607,35.09801900653229
-10.581366920835883,-1.1930670862698172,50.82901128907735,-78.69575188177404,7.599846779496527,-13.540038991259081,-8.26622338789606,36.78665944947184,-3.841587713447856,23.288384208734982,27.736904689486042,-86.82487578471294,26.783382620404183,-3.253882407873569,10.32016296059729,-11.269419323433265,-6.431790272699881,56.89307622663158
-5.260078116206875,-40.374348192310485,47.37260578019608,-21.004168472962156,23.934551445033925,-15.308587398877957,15.568054109963057,-18.001139508366144,15.615613227759987,8.906584888813214,11.482933241751164,-55.271120359745446,15.465602475769657,18.64673972443713,14.083429425425622,-42.002892977998044,15.095536263176601,55.05449374735605
-3.0619654281686195,-57.29094905190571,3.2910021660781696,40.49610140721888,29.422749945424655,-9.16339631812155,-23.68759290217018,-21.129619382104345,25.504563948353862,-13.777618279145274,4.314572164079662,-32.60732874020339,0.5337947601840147,35.271921853693335,-0.41881631574911893,-59.94475895521786,22.460075347731564,24.50404235774673
-9.84652889585459,-63.46650865785425,0.12839085674602235,55.218321128069924,1.0172039554915884,-4.381912359702849,-5.328260884877972,-36.466938474705856,16.35243402067178,-33.924231188128914,11.212284937652052,-11.606813339225766,9.429708818105244,28.45732319112123,-27.815392298345937,-55.2315474747933,8.43514303709203,-7.609452124560817
-20.242628125673825,-25.990391705131028,-17.096558673496986,53.82699453469904,-21.144764333526577,21.399523701637023,-1.0347910176330153,-31.981355099195827,5.542271467634613,-49.970743821360756,20.847691010858828,14.078197373126557,30.72731316411601,-2.4806619105218606,-31.289322265480163,-29.718715736949264,-15.943947355704644,-11.793377335879743
-38.64489633563168,-12.539432779485914,14.703030653725584,19.329648977163547,-19.777741297362116,3.433864916807183,0.7163735031726901,11.565707699520953,11.433701611618325,-57.22959722775915,-4.182208158835785,32.826454290610286,42.453540157135485,-18.08830825665733,-25.391599311357474,-3.035427767097815,-25.188537156226303,-23.00922861642717
-52.553177214871354,-16.375266120751093,32.24491995194987,-10.773168483587808,1.8955638641716703,-8.864039412913346,-15.797716604081282,35.774922740092016,24.16326276193747,-42.4193500538983,-23.740166759593905,-5.460437815843388,38.26056039523236,-0.2989361066653081,-24.868530057963593,-0.08436364344897607,-2.2085335505646615,-25.631791120835274
-49.56497163048007,-27.0485295829328,45.7831484334002,-25.05552666161982,7.1558396666118895,9.603880746786015,-13.56482750489188,17.30609086942751,24.59000779374329,-11.30181899228735,-16.341568602637203,-52.83249964058875,13.753699139437872,30.769957515179332,-1.9853022291763622,-22.03737064762037,24.968280091632327,14.90975238061613
-31.14517891741921,-19.461197843357663,25.825054850021147,-18.634562185366637,0.6906590031809294,-26.417552898662343,43.3530429613518,-10.344182941382986,8.123992737122524,22.157930375515935,-4.740754979826409,-68.95705222907168,-0.6955629494341231,39.96158322565611,11.421676884150486,-43.405731035996375,41.49791504748751,50.17714079770514
-5.204108567538866,-19.39492614490885,1.0819908603447135,14.739797486412794,-1.5817625832269293,-28.54805864863856,40.208007414383104,-29.792821433010523,7.773503448945208,29.44383046435668,4.519116538799647,-50.51369681792878,5.557391248056696,36.16279206126599,-6.913539581111478,-54.52127897881339,43.27873370539109,48.04095644091332
6.089900611122213,9.088323970613601,-27.46949027883225,43.81705351998887,-22.61098761635166,-50.10873771719845,32.86025401707274,-5.394750479240976,10.550030056864506,22.177146155244674,17.688051254239525,-18.889439643593086,-6.6482685925334355,18.104029700383663,-31.404603951237334,-25.30537895243831,17.02927054873588,1.0791906755528773
-8.20084928366042,-9.696204201371067,8.335689720730738,49.065636766366545,-36.12707510667401,-14.73121439270868,1.0945949165363285,12.946923194545905,3.465062570555727,5.53373274297399,19.824323823277535,10.681153865121928,-8.11295460955081,3.1683698099129396,-27.48065461723648,-4.391531971530811,-3.558567285639167,-22.640731197849014
-46.90449554444968,7.944166237066796,3.2224624960093964,37.321568814718574,-47.891820374282304,37.740174281114676,-36.04574261379532,34.31436746403155,-4.301602098794556,-10.42766620993023,10.53721120337667,5.775759108556791,-2.938368177589579,4.637260604783128,-15.747451334636754,2.1655376644096833,-2.761897214809195,-11.888187817901791
-78.57527514803066,3.219470895938848,17.73860229395411,9.073119085065347,-34.857982974242255,45.97638642328007,-50.24004235443095,57.145056133612236,-7.57413448630014,-19.456957744287198,2.522126607194078,-24.035117249815283,3.6995543999353724,15.284024520795464,-0.8925404349617168,-0.0676212576494084,1.9385313176396086,7.9457904624337505
-63.66183173133544,9.821626750053788,11.551437670961757,-31.08981692984152,-11.283576809345725,49.431165951547406,-52.81662690733839,35.53984863816608,5.073390151212899,-9.249267747724017,-14.670402029455115,-54.53230461433114,18.343805909787534,7.862146934091722,5.365176204676571,-10.700318175622904,25.48433820563029,8.34512645875958
-26.187996826708225,6.168271188101901,-7.721752515605372,-40.39316630332951,-3.438515480511807,32.28397382689214,-7.446837975037523,-25.130082304966436,20.65246144152622,10.527287626959815,-32.64190372658318,-66.67248979957978,18.630688391848558,9.227500947270757,-0.09932045625476071,-31.49033081658154,27.933492988008776,17.532890874498158
24.17808678392126,10.13076982764715,-29.729272770024895,-52.62652328414407,-2.728897072812835,1.7614956390293166,20.926909956478575,-51.03548836846181,33.889530412802344,19.657557557660308,-38.501652199504356,-63.09237521369422,-1.3969953745175072,27.680988748898773,-6.934279656105328,-50.42569356413281,25.887796340474274,15.977520366769113
38.80283895816049,8.427670276555325,-52.517993311752605,-23.35563112650228,-6.224966369693192,-20.944528224262925,-12.715614848014614,-24.59797970556503,21.346708368585062,16.57902085328388,-33.22632094716988,-33.342523478373096,-17.03191174603339,27.382213722508872,-34.28058653383745,-40.55280459026053,21.788676212350477,-7.844612818014409
6.162621761494497,7.40672688875231,-20.03239636648822,10.211897345278418,-8.45786473988638,-9.173525961546389,-44.11562912770624,-8.904459919792572,3.922720592154325,5.197991034974317,-5.194735622333946,-0.17712637589219327,-0.24636338837337846,12.530452475060956,-51.57133491915053,-31.36423391655187,11.436833819638476,-35.183236073891536
-17.003441427454455,32.36129646872216,-6.687705013805779,17.802150078206164,3.267941329474713,6.214663262097112,-57.25726945347092,6.49444567406137,15.211798561701764,-12.337056431649243,20.983255944888363,2.6143020305932936,25.912349532967202,-6.229607737842995,-43.96251327158848,-17.00044771145309,-7.804506175904329,-35.27617382178025
-3.0582328313096596,39.73602977457829,1.6764279527223809,-9.569396377866271,16.74526366641507,30.884193077420406,-63.56649356581872,5.778179682758642,15.564868652504039,-4.189691806943436,34.76051995972303,-17.35086828729211,25.8967367738104,-15.811836320703886,-4.618043261884919,-15.625714330522138,-6.149749771590168,-1.1897381227577442
12.157835203163085,23.1831772004843,10.333495370397697,-36.257676947069015,29.14205914174309,44.13162526976918,-61.09014499208604,-11.443892273934633,9.376498071315156,15.186747100543748,27.543076925630388,-42.689491270645654,22.9492683800336,-24.126516932370325,24.85991575054924,-22.943020052793166,28.803618918774102,16.00106228682345
5.695172999766113,6.6288891237501275,0.7285014672398762,-46.93043519018243,23.36825649552229,5.038367418052212,-39.37884005962299,-8.452463200923958,0.650623123597919,6.436200030243869,12.612280675494757,-53.57697542889439,3.397789422075747,-15.353102463846337,26.99066757478728,-34.46003388005775,27.42561370731266,17.272795141317097
-13.266411633777686,-2.016553018159705,10.264335556283774,-62.974723620939955,9.482638099143696,-33.074455647880015,9.282391969866307,-44.91641544655784,-6.022873352206439,-5.050310277055741,-11.203860912316898,-45.716308175145016,-24.65217810682807,3.3793852113419622,15.934625111208469,-53.88767324121521,14.423625038781264,5.848157183013248
-16.308535097845578,15.899483977909032,19.01879347625564,-89.46875079017416,12.387964645348895,-57.706656440553715,8.818184556142306,-55.60038149885966,12.110231274911932,-20.34700736226291,-37.167063370064085,-25.455168976569375,-18.6219289947827,22.30516521885036,-22.566199899751687,-73.21792506229951,7.08305478506121,-8.409427522400827
-2.2593223008329217,7.641825534324894,-6.993043523680307,-60.88417775862506,8.255786269566027,-9.677649631391414,-65.08822284264838,-32.10579833939614,35.12772735757531,-30.664681709368438,-36.370735526681614,-30.58702817046678,6.4491763160421876,19.158265960378678,-52.866689349044215,-71.35663747130428,4.524964853165081,-8.995807574676313
4.369117188003422,-1.0078796820998477,-26.75494977235539,-0.8541809674469878,8.707414504670155,26.440954693530127,-68.87993178465985,-26.581901531325595,30.997845670345995,-14.03032757520775,-3.6391173214555437,-37.57629400770834,11.400316673522454,6.829502332774239,-25.74729815282959,-52.795984971306325,2.8430269334655796,7.311716784853077
1.721270510557698,-14.639540101331239,21.15976809175311,10.541890691444834,13.15694505084458,27.21128985456445,-55.48741334707961,-16.86038605896988,3.919838818339081,-3.9405343048974735,22.74585673489023,-3.941772056032889,-15.292187436219812,-9.895903119752159,27.93217288896158,-34.72364683368039,5.5529007234521774,3.3055419266856214
7.082542877195687,-3.467539623493545,24.542341470440228,18.128939286407775,22.483341354910195,0.1529908829905846,-3.3282792940825985,-18.273518765901212,-8.410435442246877,-1.1765469882915376,24.619746433337607,31.253520007626975,-28.217551773385654,-26.91633191881936,52.995146641602844,3.1732712284726325,7.478706835065382,-9.393064668373002
13.323905467225877,10.046846792377629,2.3383467848058452,7.160646692652161,17.643389482305135,9.036549225817879,-14.650152362918366,16.640360782628697,-13.90328366805819,12.328334435308868,2.275424325731576,32.16927064395687,-32.25872694401928,-13.860233336486633,50.320589697351004,24.468517710945576,13.69862841298592,0.27105582041867793
1.98803261078998,12.817487069597775,0.2515812737802498,-20.507488130438748,0.9809221612845764,25.5412054868048,0.39212301212455003,2.8213600329960413,-22.42216683614616,20.851233235896917,-7.860873266797229,3.9814196906550094,-31.224427016630823,15.600302740366779,27.818826756510788,17.540908212924393,15.716422573464524,25.754833324069455
-20.967965315725856,24.375934080404413,33.71194276242446,-82.9421439810133,-7.874806334133126,21.443856132455572,-42.87067586031259,15.075307428155458,-18.63484853584812,10.23179781702848,-15.75033662532159,-21.668845109888007,-23.161557930021097,23.769382571654273,-7.381078645434696,-7.4530646300681305,8.844498183673064,14.811376463993408
-18.141184594169996,30.659477746801812,-0.40716741174114146,-63.63763254618917,0.9396857686976947,-5.892276313820981,-57.71843443918415,19.905597995836246,-1.6624374183781496,7.81421742858195,-23.44387906900829,-34.23440774661109,-3.9685538189228153,8.596187820880525,-26.665359440103355,-20.727701550356638,-2.0342774330456006,-7.3636171200003595
-3.6920072776195583,26.296946438912787,-19.68264159211711,-27.145714568222207,0.9592023957043754,3.787613482546943,-50.88949229452299,-6.516256552445827,15.408901547312245,5.004634235323854,-13.851496793413146,-30.785455988384186,-15.247669628281763,12.659487681081117,-32.37775153009287,-17.69299949145119,3.0999127301648954,-9.422011056013499
9.195763007351006,0.25301909742133155,-23.040269586355674,11.39666683552301,5.2699336864472155,16.20563658745904,-36.64183187948629,-38.8969007918129,11.875700224539955,0.8264954200470838,2.5773313860550475,-17.474347676815576,-12.369374136401966,3.2439340202300087,-21.686129986886883,-23.251592294357472,11.844515957194794,-14.313371369264962
8.412558801635402,10.634054107822031,-37.53127027441511,39.87995954892745,4.00850227762483,27.16248624119835,-5.893232750283609,-46.27882993138071,-10.601886428079453,8.951910476606376,2.0140163939634883,21.03126174136819,9.256192091562285,-13.498040357766214,-2.5007207463422905,-14.258505150314546,12.382926018172633,-23.60021785780341
1.185046219430598,21.794978680909196,-38.25294468118329,43.55785346603941,-7.121976603726497,61.85383370541813,-1.7107048066412247,-44.28728077630861,-17.355386640254444,2.622685775896886,-20.815060042432368,63.832694591876646,-2.715572296650195,-15.495790605346226,25.959789621380317,0.9854447993420123,-1.9256030005408018,-24.489381367761844
-13.561015510783285,29.92714260661959,-18.564591128049045,8.75827455409009,-11.128999004798466,39.12606950213339,-0.26570318243464186,-28.625310686916052,-20.494385481684606,-11.813397104305853,-29.678976424753497,68.54656953251414,-25.042176029665075,2.621855002808722,33.812184575101,-12.285806920272664,-2.174399468155894,2.5506924872905588
-20.39570805008234,18.331073208885524,4.34600358097329,-43.815325816612976,-7.91484866827628,22.554353349518838,-7.612948846841498,-5.6406702439103755,-15.624309211477938,-9.746557874538105,-34.441264354128194,18.278174363202638,-21.19967337979955,24.253077141632694,19.103361625229873,-20.770879796580964,4.01921361446185,29.882870777513382
-8.576683558785044,7.905526939939067,-12.588248387863938,-55.76360776091002,-3.6319033850949403,9.697210989519615,-42.69798194538302,15.48681595319945,-4.600678692711356,0.6199843795197477,-33.14886859858296,-31.893449855948393,-16.286150810096462,25.569384235076576,-6.1547245636002,-24.27436724914392,1.029978782461244,38.56156062170148
3.0481115667055008,16.32655394932326,7.977558821688739,-44.46963697292958,15.58729707357185,-3.5470150055845693,-37.25797828454387,-7.138019211203402,-0.5096541050894443,11.37598510896832,-6.07502491981482,-21.908718719377088,-0.24290646036985475,7.156720300442795,-35.90724121412539,-3.3622880537092037,-3.427161261035886,14.328741847829743
20.2404824671925,43.691810234692,-2.512332613118469,12.332564059998955,25.3283800630483,5.966525908333821,-11.703339452379467,-15.994762978121718,1.7269448685268294,22.52147803652801,18.264107611644253,31.23999363196701,7.300810433369803,-9.988502355111866,-33.92311363594462,40.20760909856934,-8.375647560196954,-24.846550277776387
9.796796985214018,55.430453072811346,1.1575868240645661,26.5557271383639,28.325825928336002,0.639568445328262,16.778240516204022,-13.52485463841182,-15.957585006581107,6.2240422701010125,32.055811168623556,70.61829558821361,2.2433332534072417,-14.928618012601714,-15.339238293583296,60.24330330423935,8.450466560785648,-61.385910242655754
-9.239685049830012,36.405529017285964,-6.403719404798569,25.837006700727663,28.095378139414173,-23.531891472210397,15.373831151620955,14.92037141796487,-34.61766256243673,-11.051038234253651,25.4365557278866,66.83127633209426,4.311485941385113,-6.687049754310651,11.543530259871428,25.68972278985209,23.613305809569425,-64.91776735447951
-23.29453624677833,-0.7851182212070147,8.886275961460637,-15.995857129427934,24.246471741916277,-19.867492124998975,17.677767122834574,-9.761849376050925,-31.010765147555382,-19.63560948508462,-12.629081253437064,32.0862202500322,16.923251830840023,-9.580574619473643,23.580361010862703,-18.62814085851658,11.331209594687529,-48.625901790898894
-22.211349112120025,10.168111078721903,-42.03631008804011,-20.914315068848282,-2.6547163815960246,2.0622686140595814,-8.048643352609524,3.7384752893410145,-37.07099234774719,0.5878620523640317,-23.546553218141117,-14.964179676852016,-2.7931525447996735,12.035883581268365,22.333831178126648,-36.47917804538561,2.8546380788806367,-4.111731926035317
-10.775349390092744,1.8813693058667587,-35.439144771083264,-4.543590263695265,-26.33818581172015,35.909597085080065,-27.13682720172329,10.694106023004558,-33.95041791730678,4.599198596934676,1.66855480315835,-21.19405060187806,-24.270888010058158,20.368781278936268,20.304184790559486,-23.273387964778607,-8.164177964073719,42.15951185967827
0.36877376336291334,13.417744504736437,-19.36986019434159,1.2799095723649998,-24.92853329260005,5.0131255756121345,12.953156515829484,-8.914788020491676,-26.922576454269635,4.703317192376484,24.538996496799076,-6.623169588867961,-31.59177432004851,20.886954654660997,7.042096799837569,-12.214316356079275,2.5915232611980734,54.347457339003675
9.170213310902957,2.1007951168081127,17.304502055147932,6.2243165102087765,-4.187494894266509,-25.00118733759475,75.50207553618642,-42.49035221130921,-32.589299438267105,17.50207681786067,32.173853910727544,17.713195702664414,-9.911864249709808,5.680130403295783,2.8604301017054112,5.19434483774851,18.226937883951148,33.33104376577488
-3.023652634476483,6.407660522481269,36.00911063035813,11.266223902475264,9.810384485811186,-52.4732039007458,64.80542369569032,12.117416034418348,-33.46986606913224,16.237301206692283,32.190334988835964,35.70157229436248,5.905001845261189,-6.4037430224101435,9.712392194555054,25.04636929779491,34.15213801842424,-4.483207747985395
-30.158036743899892,35.90878789650783,17.407708935217116,17.772856145052373,22.14338016097651,-61.875388231632,23.246740397131255,51.488976530993966,-10.325715262881225,-5.829347795385928,23.514109294622603,33.57226999644484,18.00726929620868,-11.263034920915683,-3.5547836307232763,31.81425811292994,28.003487857666144,-41.41922429800067
-41.76371570678867,32.40015162672852,-4.319518112233143,25.939544764790575,28.31931000149283,-43.93030073235058,-21.829726052991546,61.75693699757318,1.002749571103836,-23.99041462359746,11.711573243754213,23.532554381162072,31.27780235524404,-25.597212179316262,-8.13201198614665,26.767642023975565,6.519359000348601,-52.867232260688695
-33.05545093813306,-3.629973208787657,-15.109880166533895,42.21171660266923,12.127064137112784,-47.271542575750715,-1.0868983191797525,20.85065515644351,-8.566653255092323,-30.43323135129232,-8.490885344252348,37.90718223977941,28.724133703548304,-45.79293062461152,-2.1637441572902603,3.8518194770149705,-9.792134686044328,-43.710094366655156
-17.802973569303333,-6.262626770404015,-2.3655531075026768,17.7605174631133,-13.835432896172183,-74.63357790170708,17.70083443802359,19.298863268959135,-27.31500588132014,-6.700434960283092,-24.78848482474893,50.13328968218559,5.365700306284161,-51.14674040134933,8.58826439704372,-14.276537392836628,-22.981816327779903,-29.377708121352004
-23.93638616931794,4.677653813779478,1.1004378786415074,1.1218598932938413,-39.02106804742937,-35.976018525756544,47.522034703199694,-27.567692061171392,-44.6952824579478,3.555016262982817,-26.731939972969773,50.835771584264116,-32.15678751661534,-24.080238139346484,9.47540337542704,-8.281121650581568,-27.678519751581177,-17.68266615546254
-38.27188186032639,17.86255368958419,24.58539017273126,-31.142098269947596,-43.40992642070617,17.52843070148174,51.46216019320238,-41.52515352869176,-40.98062872179591,-0.8387175802316107,-16.762786578369337,31.616096612373063,-45.17087836666288,10.992152504297808,-0.8694854022409588,19.10372220993627,-14.897741280816234,-14.09377421708881
-37.4692479817185,25.77240875860908,10.471212250958196,-25.124269276775458,-29.052741348844314,28.945257470161263,26.200931573185056,-13.393685956593904,-21.44457108092207,-2.8891352942728,-10.60401236738269,8.587822493587806,-34.16487229343038,10.417434323429125,-0.6686762875130685,37.11587599546929,-18.13609301544113,-21.247762502486964
-18.501081059691202,17.371875177878593,-6.671280919179621,-9.828987081419227,-13.430168078897218,41.53679005936027,6.406930667407025,9.072083478459287,-10.599209989805779,-9.432222848490191,-2.6892169607918697,5.091175916615407,-10.369418383805847,0.8561842915299409,1.4839985546703307,51.614871663984644,-17.764375174905165,-28.206934277267358
-9.785769235981254,-12.514927573811773,-26.353825895189296,54.09983208085471,-13.046283450678791,-3.096351532458563,32.70586160614592,2.043674074194172,-6.58905535490562,-19.97963427315225,15.477733010049157,16.536265993822127,-6.109235192887291,-17.593924635862347,12.131656005479005,30.17840452052589,-14.075565665144563,-31.650895527396962
-29.975925988492413,-2.363644572995671,-0.3335245388842516,71.34824789061882,-6.123329191630559,-25.85144998604397,12.71358652705971,5.560767309583789,-22.695566149404765,-28.671846463616294,52.68594494748859,37.35662045572188,0.29569144067714603,-31.358450043877387,21.8015428432206,-4.439209580996093,-18.397965672985812,-15.173114095415439
-36.492761142634485,-15.065882884738357,28.71316497010568,74.82693234554286,-8.188802816459189,-16.767468790029827,-1.8112079868450808,-1.2753850633390171,-28.84016412948514,-37.5596118431433,79.05206200117742,39.329167259671436,-17.033941335703368,-16.218254502856368,24.634241467808398,-19.42491028586372,-19.110306048569818,13.511481275754097
-27.48076164570034,-9.800730579563794,39.106198315989474,59.2623805192022,-6.8400872493711296,-14.90755776632591,4.854458464388923,5.266056060354603,-8.030407697390777,-32.87312751734839,44.770549208852934,57.220072615760266,-23.91792374374309,-17.48651020577765,26.58692003158429,3.1903834270436757,-20.900158795619543,35.65263806603471
-13.58460474168374,9.525478272883344,51.15835916017212,4.9277413826676435,-9.889716749575301,8.537261879985191,13.569752909950722,20.204554284681603,18.73728429660182,-20.76476817907109,-14.122973889933416,68.17743184639025,-14.59444593032006,-16.41291044596187,5.491316685651249,57.93789201573628,-11.657963122667091,25.468747266712228
0.7034703143167107,-6.892729262104458,14.185253788581274,-13.078170999328226,-9.329670838863075,1.905990290642027,28.33872658319985,28.69614155106826,36.32595780676014,-16.371419233516086,-56.22171107466531,31.184996342836435,2.342616619456731,-20.81005245796897,-9.550517719614467,77.62914114423975,-5.544088806516059,-3.9540188097423874
-0.7300465351801577,-23.703277703492947,0.45358302237939685,-19.267438094618637,-1.1558955903734818,-3.746267274803368,35.782352698508646,3.3966591481782062,32.62604905740045,-25.845452639711517,-57.50194283647593,7.4741671078261955,0.33036670082613817,-21.79105853219369,-1.4484352732725378,57.18597608621866,-18.574401123361092,-23.025329073056607
1.158121287306539,-38.95303966976164,23.342430081262954,-2.214093596554668,5.842499716635354,-29.41598183233742,34.33819069073377,-0.907892096779978,25.50892075356157,-22.72155382933152,-40.034401920299416,20.580453098275676,-18.385057082903348,-3.828323249260528,10.266058454292615,21.8041383561941,-20.08436396866569,-20.221533712848156
2.3640237809514915,-41.99734986813439,22.88991504982836,33.296643336070446,-2.49476919619544,25.581919031308836,-46.11193397600428,21.15367221498787,12.826099067677621,-24.773363233262394,-18.565489417452326,47.06598588170769,-24.115688682667,13.839604697183468,-1.7511622741740744,10.156134333828213,-2.944954988733603,-22.203158715624326
5.622095018205819,-28.734612550081145,28.19801673911467,40.48672467561234,-7.905616216684714,49.526922140550745,-50.78042074316518,-2.9783400640880036,13.816155402285816,-32.78207325675265,10.322734431899077,54.21540730537565,-9.24420885611997,-4.822953320779931,-16.991931510111453,18.921638803700276,3.8394859667050607,-38.34530951706074
5.46351881304804,1.5187461725620193,33.60255820510184,24.14138857307848,7.188441206569074,25.328863724712114,-33.28128700471261,-4.5528710118366025,11.388981916997793,-25.55588357985713,24.754855911528907,54.13825751507851,3.9634356165253344,-37.06171500604048,-0.9830274737781304,28.76445377810369,-4.613917467070906,-53.413340547399194
-2.017997355032639,16.3403253180542,48.4786542392186,5.354715166789104,16.9081918389948,7.77367596612882,-35.41196414878178,11.937832284318569,10.427462344386708,-2.215802690742322,10.3751085467695,49.56892916857456,12.577532954829412,-58.95050382753713,13.755560843682762,33.82514596976607,-8.968920408433021,-50.70773970643887
-9.5957638965983,29.89046497625466,36.88822798863668,-30.32663342696236,26.429586341875613,-17.689705234713287,-17.230355680535673,40.73197221645459,7.806545723407618,19.75750685855955,-24.710992623148254,24.003235682472447,14.351978002217079,-49.49287411829227,-1.6828202271349744,69.06521398637423,-19.381913785422682,-42.24037013670223
-9.457145136047425,23.90713452365002,2.1516139501712406,-35.05035748644899,31.74874829259089,-5.552834564552001,-11.647039932172355,21.184101328158125,-10.24351262580645,23.078699016358385,-47.495207508959936,16.211266969695068,-0.6742934351747767,-9.860685901547146,-17.707839103963924,63.97579356479538,-29.505128711203266,-31.038582609800244
-1.797440533049139,6.007603476120693,-46.063100415397514,3.4884247049670547,30.42432556080374,9.418070135696674,-41.904479722374404,16.283471299772437,-22.530986496816833,9.310372534956704,-41.47345275783928,16.329553952304313,-5.743032833035219,-5.777564138543961,-8.049528488801723,33.7915127343662,-20.881234773612412,-10.559269175469133
14.359942800194087,3.047715153538709,-72.20852660972665,17.808220581715666,10.249192418345555,19.70329977625446,-24.212255520036983,-24.84959105326428,-13.723614214325009,-6.508104797908981,-32.72041834207732,15.959489279998515,-0.5612368249167385,-21.422919516190433,-0.7356257489998983,3.6104277114945624,-14.213653595219782,17.244454814417104
51.02692176187212,17.371219095534762,-66.1282886249047,16.01462785956481,4.720045909759118,33.701356174774304,-26.73539237994248,-26.530327538512417,-7.356914842018223,9.705894970757168,-10.005536104144968,25.941036067439974,16.335993251574948,-35.116697095468695,6.675345493235805,-2.7389594831730335,-6.182000955236378,38.60288743723361
65.5270780572101,27.688690723636757,-33.58422211236378,4.650719827644099,23.212121629695364,25.044584938478987,9.999749981675611,-45.79084863405924,-7.1418864027760005,23.576924738869245,19.542108377955522,28.305119782046877,30.88597778587193,-29.573439070845076,7.347375092981906,3.805694107874153,4.190323377036732,25.58595433079354
41.25860920816243,7.73015971126609,24.447066553060868,-7.5919605230946345,19.04511267797003,11.701944994777609,3.374798825241788,-25.599024139162694,2.6443631143248396,17.038380735475698,23.500076249173247,22.66105485039091,26.48693832901092,-12.21509476856098,-16.200242011089784,10.451230809560366,-4.67901656545161,-1.2981799807687668
11.718132550826201,-1.6834777871826159,63.042987960176866,-20.713409650135755,19.074990807514503,-21.072948355210013,-7.449417858744354,10.997929442649955,18.193177390204212,4.153056371111881,1.7706420657979205,28.247357246542073,11.244507091604973,-0.7176751609088026,-36.91628264988983,27.94000475549912,-25.17269067447217,-6.2090860927318
-6.590182306988058,4.232967286863725,8.276603914276258,27.98264458805655,13.633733275127879,-35.77958948885009,-7.042904259713319,24.058006780425618,22.707420316042736,-5.117879402912674,-35.489855468328535,51.80234803737976,-17.185059502468647,13.512741885999894,-22.378349252086338,20.9199131756421,-27.309744578041222,11.927509494209112
-7.611544955772035,18.448096462811158,-12.213448081728126,24.82259507777469,13.561443073739055,-15.425598837465603,-13.17929764406044,15.43671554262385,-5.004642922540995,6.8040466756367035,-39.843242072856114,61.48953682282023,-35.85214791774374,36.43332046865352,-2.5673415359207414,2.3794311199462825,-18.414478869261053,34.5566740028112
25.548843110659256,17.328694487874102,-26.650283717491074,-4.7048861553560775,17.295690500588968,-4.347658238779081,6.563841619043288,6.814084869246748,-13.184415701331998,23.610072576020613,-34.532123279228706,35.628834130201696,-18.29146354948783,19.11757560947627,20.0753221189199,5.424524571291556,4.931159034343269,36.28743224643031
42.01130762958391,1.1676915002433566,-21.7524790336423,0.6316052543919453,8.332411912054217,6.048045047088537,46.913063827139,-21.73205316974878,-10.914073991626394,10.045835172050609,-1.294563606245223,24.220927776374488,5.613774577671611,-17.43803490535418,39.78785874435261,11.597869199964405,1.7109517006409245,30.0106424853036
24.783409001913594,-8.159622716354999,25.331848573010838,-5.262383280323535,-15.965056933872194,14.687206926827853,67.34047334254258,-32.01751088470723,-12.061023564126822,-21.97433972594309,34.6736795165396,36.05493535175385,-5.15263250330963,-25.67414720354011,57.25389475461831,7.617997403125454,-16.258479153489827,43.7541119312366
14.295457617602827,-5.086801886553902,36.76945175038572,-3.9295386439122613,-17.217129115198233,-7.0439599545678,95.67859077797542,-28.72984826195802,5.7383508243501335,-40.02800046925433,29.426563996972433,46.911654485432706,-13.578346955735991,-2.0750375010173467,52.84424510911776,5.496792793991521,-14.796887601720263,48.70884218993703
20.020258987573655,-6.020392150603877,26.81833224196876,10.489603284165259,-10.755974476271016,-6.215030461451565,38.078390593440965,18.99079237267653,29.007273161530257,-40.40407064109101,6.20657439512707,56.49802544751678,-10.581142192374752,19.96039287351229,19.332256227513327,11.386671119850135,-16.170199817856833,28.663682432411427
15.297253479475835,3.297589890818538,7.490363931908654,-4.290759769781555,7.4224699991004295,14.146534934943444,2.54939409614098,16.318757385482726,25.225707435996714,-28.961932033118803,-13.403984878909425,38.9346570084329,-9.14943847117396,31.935966930088625,-10.469053572966931,28.119681529827357,-20.378375543595418,6.372919173621438
11.845372011339224,-0.7660763814495164,-1.487617636794714,-11.160687841084876,16.614859385926103,24.938658657408688,35.86971743937398,-23.366830534526716,10.995460208095237,-18.98295441247219,-11.729117588906574,18.147601945274104,-19.439579165838886,39.906511506449874,3.187032001622091,30.402440606057823,-7.499193874591113,10.254986834242985
6.637225387535199,2.9802903113019643,-2.3617682359699703,-14.905411968029671,17.895525123902186,6.922694413069863,62.257010758438774,-29.068781770131963,18.05528699916205,-14.275706534948217,-13.08565432565015,1.6564093562547342,-37.34987517807103,39.08684477886537,31.003205385109432,25.26627353948521,20.221260713637577,6.129707338726861
-1.4990799029284272,6.724021619256545,7.211670396653961,-8.493577105093884,1.4987898115761409,-25.35042645149555,88.84034337363217,-32.91648004757165,17.40082816546438,-12.00803067250111,-3.801563332984843,2.3518008478910275,-39.247086981914514,8.187627286966691,41.4360293998782,21.695656981321967,12.391639460208346,0.3448636607578096
-11.879941709397162,32.53571688675614,9.26364685421467,-1.9839331953870438,-22.4188446472625,-2.7390962774807663,32.02474178301031,24.075362693984804,1.6100838010342846,-7.589929688402998,10.654271509215915,23.26106321432094,-35.97115493729059,-9.040425090516298,54.31003658967205,21.643706990499,1.6296742961523627,7.549145538386445
-19.81779195845025,29.828616026780317,19.028741689617114,4.916489814929667,-21.727884496282545,14.794759728876823,18.27702926126764,42.68649571844323,-1.7774758941981958,-9.615201350190791,0.9844791549242835,44.364253662323264,-25.471195346006837,19.04384412007636,47.554587389093605,12.903164049255302,0.9238929304644721,7.429770554841155
-30.29318029586163,11.688804777995465,19.123850596048925,26.368060626704956,-2.580669788119816,11.235199045649312,14.9795681181253,35.22180774488607,6.359216007080399,-9.685196701120628,-21.09205916002409,51.30557555893383,-3.1572209372326743,43.806929339508024,18.630588681323694,-0.4243919629439574,3.731276564005622,2.1352353036175042
-33.833312297287684,29.777175516772235,14.236518921207704,27.11633098285156,13.635852290407719,14.902892818853493,18.128436237931368,12.423663857585156,15.570766979471703,2.1612569213561414,-25.106174674015286,44.67086389671305,8.41190609288871,29.017858299228397,9.628533033518746,12.032547779256925,11.32142710344413,-0.42415821070733717
-30.438195831593486,32.530388608439324,2.706539326561148,28.45068372605272,-0.22707178861162625,21.403168917301517,39.247289899967036,3.3940844905870673,5.739667278876252,21.33432868442531,-24.729995754696603,30.905415620836454,-13.810962902803851,4.462291353408287,16.837431356138538,56.328711712616816,-6.774817619049979,1.0211643954763256
-24.50243860871504,42.60498627781812,4.456065510022138,16.79668803985357,-18.48535781236357,40.99001592708134,46.79271969885703,-11.593779785917656,-26.259147024187673,42.46292554057212,0.544559683796427,22.60696301877945,-25.586791410407503,-10.425831328489013,18.088980175600604,75.6272405910695,-6.90439355855711,7.64311844040775
-11.240822341849906,46.03585759590857,0.246497885145061,21.549318355565447,-24.048802376336145,44.85432610629652,43.98746944458113,-23.946033550533983,-40.7766506715372,37.81233157950322,34.11563386699814,25.439536719786307,-22.911529693661624,-8.029155878058294,23.83255976476556,47.95508543107877,5.366263724461817,24.910558450050612
-18.19284235402082,47.60817719028492,-1.2306488963090159,23.860625084084308,-35.27696142520198,23.23025080440818,39.23014091714833,-9.834173703282953,-29.707269487579374,7.577944126576968,43.65847423552581,30.51616214949697,-31.078447946776897,-1.6290845730832006,40.90421259302594,9.15257652002294,6.013407185124917,46.08512004264998
-20.5534469302781,51.6188304981503,1.2941521733193069,9.863203017957748,-42.403961428219105,17.13396605115591,46.388167112617005,-18.57534428701872,-15.414645266274334,-21.579592426332823,26.243309375144825,52.97366707659225,-40.22402785540952,-2.163233696896867,54.85059240738954,-9.920503406430807,-13.556785900689839,64.33077967698637
-18.02967886375447,28.868097669499498,0.39888988406182957,3.092561088317476,-45.625018044565316,28.225578459483312,33.72281418541831,-12.473642658500353,-10.398989128115666,-22.120714599194066,2.4758845989007003,44.37368890651366,-33.355734074797056,-7.678397616840331,54.63637254016268,-9.752508906572189,-25.511799829637226,60.21366389164156
-6.129299915486325,20.958120115429146,1.6500331675283526,-9.830417846240174,-39.47119771956905,39.70788167273068,14.12493338075508,-2.7596937638193575,-0.890581216774117,-13.088601591486999,9.075473693120806,11.55214463635118,-32.1534944198927,3.5054930110249156,28.054332183452512,12.195592795629501,-31.02346638788803,31.585317773751097
8.604601659609981,8.259635929401359,-13.019121406722963,13.477718429061168,-19.25482856079207,35.17430027471764,-16.507072940720633,18.18382151288838,-4.760810645482554,1.610516423809118,31.4910382233018,-11.01790939029943,-35.250008170000925,3.751348948572324,-9.66092567938756,58.7558051870259,-16.029008594706127,14.57911908619589
7.226402683671676,2.4915176348837704,-25.444254877827557,24.676381314976297,0.5708444804311261,24.195217775680067,-37.56739620542902,5.043727340469669,-16.931498805903693,18.656354954873382,27.63205839328522,-20.40686778657185,-14.617409763514031,-31.84350214610053,-12.414953289471267,51.118258590353406,0.6236933784031589,4.9957974635399385
11.806728843523018,17.32579250422289,-34.062863261646335,17.222494805773728,-7.435902804716456,-10.417202986304975,-30.891673325214377,26.082799870469245,-13.964813202797398,19.3963634818416,21.131674886989824,-14.271072274182409,-4.924101111798169,-47.223465883994905,12.956200933181494,16.529386816959825,17.07920738352186,1.0775246081382726
18.048613927049235,-0.5587218758319459,-7.8198041609570605,7.913182644257844,-15.247198092247846,-29.502282904736475,-12.78872540480548,58.7421171212451,-1.7202446917222751,-1.4428990086728455,17.65400558319425,3.0924086516966156,0.3730838159911336,-37.31028809180981,40.86620152479911,-2.7250865294114064,16.052179532274423,2.531336908393328
10.424449478664405,22.471854417272876,-11.169204103237577,-8.915711758888506,-22.86294039383132,-17.72783117311715,-9.72378039403269,65.32580758426592,4.079282756467389,-13.001510635597157,27.84371450719237,-6.110098594274525,-8.003241344592919,-2.8851788919266275,46.80294731368116,-20.903271453764233,7.601424338430737,20.783198175099724
14.520533450206884,21.57272605217261,-7.098796645185044,-19.10382379767098,-17.587522470942393,-26.950181821607867,-6.852843986654214,28.841440860606895,30.387276196376177,-28.756164560360126,23.08705557200752,-14.827528148524166,-5.540883461240664,20.016207484985912,14.652902021495594,-51.67733346372694,16.23910298315925,17.551281117220313
21.645294753127736,4.654114474160297,-4.300136730145136,-2.5336667220752638,5.266728200652016,-5.996752573420206,-21.558977900912254,-12.819763275501558,46.050885830605544,-33.08154846509618,16.665454662817485,-10.169186253284359,-10.20876505303018,31.6868961857058,-11.540303366408928,-45.04659331533837,21.945448237467247,14.710925023072601
23.30247547006681,-8.947802788745829,-4.531078723856876,16.380316757829224,2.7305068761930578,13.881906708764273,-18.099434957106126,-44.91146922358786,34.272948141090936,-10.840639880035498,2.9147375643491378,-0.1431351101375995,-22.3974142059758,26.16981699644695,-26.79613447943396,-23.374758906664745,12.122682185400311,8.941770906761121
23.398348318372676,-23.530020719732043,5.196842824438065,19.47377939050859,13.867010385668873,-5.693768256310316,23.838607383267565,-49.65995117082409,14.389661893685975,13.649855431310527,-14.161152140225894,10.660584628788932,8.187009231346618,14.30503098066307,-46.83749830999068,6.697356439890932,-10.982995552854696,-2.7835682845401166
13.436650605214181,-5.205357188453256,0.17620675417031983,-6.534738932650539,22.367496697218662,-13.258220138458078,7.2810240885433295,-8.217247867109675,9.252902892268342,15.291968493125818,-25.284751334605744,2.612641187462984,31.348531808134396,-7.032457695043775,-46.76168230209683,30.618660969307314,-16.804639706376324,-13.33607588282721
21.152138771694087,6.767723406368569,-2.893525167788941,-15.746107612439147,7.8215984300217425,-29.417303074780357,-5.075906374621198,21.31030302612403,19.35092280875875,14.59389360722902,-23.42472331881863,-1.2398636993655998,3.5319072978486794,5.224466138680452,-29.986718790631826,15.86903736095287,-2.5101022163852837,-15.293763218227582
38.341518389736365,9.947725647006507,12.687109960285413,-31.793506795848117,2.749443037830602,-19.01430075764688,-21.14245325354247,22.809192441417558,20.659878871611152,33.13805877453189,-3.502884549757711,-21.112205895238034,-20.086134455885176,22.26682080299114,-13.016777448713004,-3.762027430229004,23.990414524289115,-10.316812637669594
27.99245915635983,-2.989731830046477,28.949078452355334,-28.21169565765691,-9.157712470538241,-1.6784882044629974,-0.6836214649554737,-2.8416415564082484,16.40243611465275,48.2679341983927,4.206848266777026,-43.13710845884553,-31.59520915018104,38.82113986518946,-11.770081585321833,-9.81731282594707,35.25516103418026,-2.8974821031605735
7.2926739811003225,-24.62271045360167,33.48983899976375,15.019156104368447,-2.508756475385416,23.37132821298112,1.6122591366279657,-52.81010573698965,14.098198423350356,44.55366127043581,-10.158972172482606,-17.31392888970954,-26.698268283964698,46.97719776266676,-25.953669646647242,-24.66053469471686,26.694299939743402,-5.145334428116389
4.074566859131924,-26.53285623622947,23.184336827433818,24.948710547548846,2.5789152575534997,14.23991069988112,10.940888641100896,-71.33361133644011,11.110362976967064,35.66738630118109,-22.576555599042976,1.4735643187410403,-17.01647452135702,41.65684323662749,-38.868079664181224,-29.346185788890324,24.1872096860471,-2.997659160878417
15.701324252727677,-43.77934488324557,22.447001135600225,25.89373931335303,-4.832265997791268,14.287229681200651,2.8878336913726326,-43.07987361754904,2.8489704065016532,27.956923396233396,-10.877607034876661,0.33443305053589967,-12.120177616778761,19.832737404131297,-24.731679697963614,-13.717956332052765,16.893959306551636,13.115997038757877
31.332879826267213,-41.30309317563207,18.77763664965847,25.569198664830196,3.4808842416336416,3.2004101528398516,-22.644563198614257,15.544627007441207,15.583905470594472,17.223048988390367,13.023618988377898,-11.453951482282285,0.2956067176200641,-11.366053809052346,4.1506437382889665,6.501161556546693,-4.8534884120193595,16.828038101312448
57.41458460882727,-38.635693026564184,29.656975662355013,-3.857372057363097,24.588730714633165,-17.555745631123877,-19.26887659909911,47.41013287962792,20.017797024311598,33.64206226593055,13.677354388805492,-22.75871849183835,16.227020298242984,-24.204681465430465,12.329119974955074,30.822782556373276,-9.218630256775649,0.6188107924567614
44.82453284140384,-26.4020435697523,15.53363162226492,-29.67063409097331,16.49854141157986,-33.0396660026297,9.4992123509752,37.96566142166759,8.728605943278602,43.522098563875026,-2.763969769929394,-45.201247934329146,15.166046868389241,-13.018946044848455,-2.442389700641451,31.219038058796308,-9.580495833818562,2.1841945789523773
17.684121217853065,-34.68076917204853,16.15430442475618,-30.971834644963053,-13.758230871688047,-28.30977795153717,7.897130211224434,23.051624339161776,-8.322630926023841,47.449158180761394,-20.479804280344528,-50.46090114884579,6.292623062675961,2.7573126225802196,-19.16748148701802,-1.001708470974478,-12.872703036230774,12.051379487600396
13.884485146688176,-44.52630679100589,-8.032389511767759,11.47759812455628,-47.43120531609094,-10.29984085247459,8.835530289086313,2.1797543729597137,1.4817172004683101,33.60670657668747,-16.618240750558954,-45.66679605817889,0.8374978282110579,-5.587230731973689,-24.369397161082325,-17.596631441571795,-23.978056353056378,13.520881853910316
37.82015253824858,-22.051457214246565,-34.56516719960782,23.65309491081956,-36.960968603550185,2.5327740494391597,17.587924163188298,-41.44705797048429,18.21941513832626,22.112288389112376,5.402699032056665,-40.87777952433685,0.6562767109908769,-15.591245663367165,-24.493557025676278,-18.858802383251646,-30.591597152934224,10.889631255608824
47.49822212719161,-16.182782876814212,-20.376960833927892,-1.4767031315460422,-12.328353979554741,-37.664282751838115,43.822420479155966,-37.222244386077485,25.093273615499847,1.3446808634832568,13.648935099475668,-30.625114293613095,8.288168974471848,-19.344405120885643,-26.473669574862065,-5.862554916935636,-29.97882449083536,-8.733205846382095
51.512499457256595,-17.447515565756476,-22.98817323992831,-3.3639979017599,-0.1938324752107028,-58.42902333916019,38.02653615254755,22.080890460547344,24.154045437851643,-19.418584203930223,29.312200079351214,-26.33484856352107,19.143368273746354,-23.682700925337407,-8.043778449109164,14.067681899527138,-39.815704277011186,0.9421267178825978
55.13642435897934,-45.963180236536395,-10.660030981701794,-15.310078757218825,0.8098952850513221,-43.64797423646525,20.41541339041926,44.4687783036794,24.386181198435,-30.80231910369924,27.782748455087233,-38.163476166363644,22.674945423656673,-34.85617856700533,11.557533741967976,22.669812144168375,-44.96520092097364,10.911266694707587
39.52197234392008,-87.47177517879007,-1.8498372239906442,-17.00213485792761,-1.9927502544995952,-44.103212303644874,-4.518702885444238,48.398755354925925,20.906730638597928,-22.65007601998304,-6.857624413095376,-58.20080512237342,-6.800979285748639,-39.97396658330719,13.091685012658699,31.467350767837416,-49.33353737216784,18.43978319032518
32.79448948007492,-41.678827446489336,-53.882673823668966,-43.694608596909084,0.7734627453954213,-47.39225484066811,4.5333992071093565,-4.215673332942466,13.22734006966774,-2.3838021670891827,-45.40924518889926,-71.89591310074017,-12.545153799258937,-42.25872075866447,-6.859352063968833,15.362160400889632,-30.752319211146705,-1.668035618419486
31.731184865157427,-0.48029448695475274,-54.35446834455897,-75.6606337213804,1.0030294226415961,-29.784319580469784,-4.675184519691957,-32.70919030990804,29.08274098747338,-0.7656464523349076,-59.45370039553389,-67.62760582741252,8.27460036301753,-29.893805037010978,-33.158633599631294,-11.387826713700107,-12.366342735434907,-20.505514173737254
36.03899748917589,-3.427582817457372,-49.35965862080786,-52.84069631793227,-0.7180174976509719,-44.209948542983014,2.035740809260636,-22.921398760336906,52.74996883577931,-11.447818328455316,-44.01043210034497,-66.88065867407481,25.48214438946392,-2.1955659036656767,-56.04039069229293,-33.05981178511209,-24.93770731879846,-34.94762092782883
33.60827755536145,-57.55206926634165,-23.95659288935861,-20.15735211271733,0.7862671423516474,-53.07095691554601,12.263627120196507,-19.188887798840764,48.58387841040029,-27.789555826708217,-25.34935710515519,-63.50270219167007,24.81954988097262,8.316018311346157,-47.57451402274295,-44.77100462131088,-37.21584675206769,-36.20517597635548
44.947058332778006,-73.59459666100545,-24.630335898365253,12.721288383499985,8.152725834498892,-27.851328001631632,-5.534991572926142,-16.9217183077176,53.30370832812963,-27.329544877540947,-15.677675510335098,-50.85307378342622,3.2595272204171604,7.402803177932913,-19.870566953620557,-32.947075492402426,-19.02442943835844,-30.332976449487415
37.5352181516435,-85.24710044445416,21.86243906718241,6.146189468938832,30.658925909459995,-11.032220484976087,-6.046940553863209,-2.7407541287078265,42.39729256365683,-21.786682267441655,-22.22204054491708,-18.091823508070327,-3.650407289119715,1.21727495295423,13.887652801299964,-0.6155097231180786,-17.62971125267205,-9.51842087889239
18.501675900245672,-39.872071572461806,17.961673282928338,-4.139908138039055,28.851220810929004,-32.5946006353794,45.49391823030963,-15.904380609169676,20.454470135219005,-10.379675862709995,-34.337736872208964,16.714312072287406,-11.828367929843324,-17.07655985786381,35.145172618870994,19.605912965629148,-25.902586431057138,10.710891835145581
4.643464915413443,3.9358351575628063,-1.5664520158854787,-3.585992296214244,15.522853334941233,-43.026032604984195,31.117016586694888,20.346412615774067,18.627983928168064,-10.296259547820302,-25.266519921638633,20.36165130207886,-22.64146733131281,-3.923301188388286,28.960357063691028,21.564661388539445,-19.428528905255153,14.729704597629663
-17.223309394093675,1.351708443612413,10.837410444061387,-19.731535831055375,20.947800080573646,-57.36584517079254,0.3348100540969057,54.54602353226241,9.08530040877588,-11.770632780868251,-9.65702484518901,-12.423369120285232,-0.3468785948562152,9.231306210752315,8.614658408629323,0.9637024717183342,-17.44602223604006,19.725760564348057
-21.903051326586425,2.4739624852082187,-15.042624581187003,-18.005687806815644,12.508451260779246,-28.64070055943439,-9.742779366253636,33.08038026390843,-1.6305907216104991,-3.181499831838572,0.8695052257504603,-48.53481590177642,25.660510682632026,13.598112871259053,-24.524714552591092,-7.528557402197006,9.928293427492513,13.198849472413993
2.225407483346249,-10.471115881031102,-12.799261779459506,-7.685921579140662,17.549047746767982,3.5003250083187574,-3.70568518173161,-14.362536305876265,16.558814403287318,8.146831542821229,-2.1831231039891037,-51.25341459850138,52.06042759843791,12.692844112380097,-39.59791467306476,-22.17420577017104,27.537723030720727,-4.948706337957887
46.47042411857035,-8.772153532668533,-28.136289404479438,6.833177529613113,27.182806984948673,41.498642759308346,-3.9175500017342593,-25.28174417908992,54.18063377282746,10.788426574729245,-14.908568207459725,-33.66533342916105,70.25907926069283,3.683471635378991,-20.198439501032837,-14.261955831502709,38.11677462339514,-22.4120518987342
39.737058501855486,1.0277803879106848,-23.45544124811476,8.559176738370349,12.893738778096143,51.46698597054374,13.059463365197496,-30.63471823204483,37.11256037450357,3.083122556295136,-0.68514351550421,-13.641965035374849,46.27165822650454,-10.500226736303617,9.454594374128144,1.5594440175670345,29.84895281020833,-22.296418798991944
-1.5682953668010526,21.37013070108342,-9.499030341046247,11.457147900807552,10.131670805788858,17.6824289014318,58.26065886073039,-38.13639073894793,-5.836455632219728,-18.680057742406067,32.283936783147325,13.992529485417599,25.31378210683192,-16.772068786201636,38.42352388538299,0.9731306230935273,20.996345903991735,-7.922191154848322
-28.226243759065653,29.110016125024636,9.729016487845506,7.421514601832573,0.7323294627572672,17.587531160458433,3.16842958927281,11.686831697159828,-18.220324461139686,-24.910804168955416,38.78317692275745,22.382255162867764,2.697961029968536,-2.045872914341333,38.387609088785034,-5.86457529466006,30.99293476057902,-7.121846153007306
-18.654534231007382,4.71589352253887,2.0016876404281874,14.323660299285038,-4.366554274776609,18.95521138377169,-19.500376575258265,-10.366211018149409,9.140696721012377,-15.120815163502943,4.847559889023078,3.51926578460278,6.745018955777463,0.4747730007419295,20.772811150598038,-43.270533591426,30.541487490222565,-25.364238764912276
-24.611877873893206,-1.323178856320233,13.804112198139869,-30.630323912410375,-1.5515819502518742,36.82473559143744,-26.835885152767467,-48.82589192310602,18.530798135479124,-11.869017898840841,-13.95561847121247,-35.467430210021675,26.22439269495142,8.465963002336085,-7.3895061846478205,-67.68947294722338,23.157772402044575,-19.67998511358771
-45.12180666338455,13.53190848953966,-4.180821709401301,-31.63817596546249,3.0248688410819096,34.379110904761106,-7.119188260004389,-32.89031840730951,-0.3041687968542668,-20.721894855802535,-6.688647692824193,-39.694184503342065,40.72568903832057,18.412060794304733,-28.227969116141296,-33.51530763785034,6.5957505836926185,-7.745158195814618
-48.933953564906105,32.386376386905305,-40.42945172408321,-12.82133769879603,-4.992831734335123,9.469843272935474,20.801749466634995,-6.5054420876622325,-2.9300185754860273,-21.952575947580485,-16.320888024067752,-28.594884053862636,32.865902223900235,7.168223544921215,-29.04706315005952,7.78625629891614,-3.909882005591986,-15.439081418193819
-50.892405202374874,28.482015478246495,-49.82385076044449,0.917488104241956,-14.959934130162038,-9.680003123616896,-2.0583675833902504,1.4220778196194175,-15.4214543674006,-3.451496986325801,-23.90669064092517,-28.537110385798673,15.633581130555129,-17.257573277778334,-35.04247602726595,11.390241157044851,4.531784160986296,-26.648250160024997
-34.78608703713944,14.221371731152988,-27.96936725645475,-11.027459808091272,0.46778263851909596,-9.593681843004127,-19.74167457644633,-2.759973314038837,-21.567378035263403,25.503858913940167,-5.812833389791442,-57.685189859539534,26.138733870265227,-29.962566001514617,-21.604447063829237,-6.199267899785515,20.592538333154096,-16.37230567810619
6.8068787572077,-16.255004798995763,-11.389940664743271,-15.647842400321181,15.215753545045137,33.45961727072385,-53.43992101029379,3.507375118428392,-9.941920773995317,26.8269730410205,9.542332167493848,-62.913293541495676,43.48266829887907,-20.594995109683996,-7.287935754202746,-16.85691251098199,25.91281169588154,-19.08445320536901
9.139300037946995,-14.801832297733045,0.5004329002089367,-37.16275542422312,19.61591171917703,45.16233425162767,-59.20714325583276,3.134051574238592,-14.725378380966529,4.6194681197859095,3.3109147541635586,-35.52985927690963,39.34470138161579,6.450579240815648,-12.503397689262364,-24.586728643851043,14.24259438643068,-24.62831096844539
-13.823876704652918,-0.26703725300108694,29.67480447580042,-55.84531065467071,-0.4920679735394895,50.51483181252559,-49.055262258517246,4.128024046658549,-13.163584005530168,-7.817371169511079,-8.491161954066644,-10.789303007545186,36.08851455581761,12.990017851358877,-19.96539980150581,-24.017606978434973,1.2072094612793274,-20.01542297706507
-48.02004707404057,14.653892878998132,-1.9929565080894562,-18.56967184909982,-15.908476292977223,23.05184455567371,-16.63654323064829,-7.280415227486207,-18.147445699189106,-16.14770084836018,-7.40652908387359,-12.22710692093991,27.561726466063604,10.93760121708384,-29.185639367543523,-26.087278510932734,-6.5525330310815235,1.0042824279584996
-62.29650189996602,23.80854060341897,-47.822386715951716,24.565766767036667,-8.761904129733036,19.121871656466702,-12.342397766211313,-18.200410684435468,-29.774707208412835,9.902369007811327,-3.2985607369251966,-38.57368230806871,15.424572291524282,28.125820434204204,-27.468595195373332,-36.264638454158074,-0.9309578959507863,23.00085831509096
-39.172615303291195,10.985742532435477,-38.28110963773294,3.1498018404415102,14.306962548919856,18.99803365834826,-3.7504731391739625,-38.59301770976464,-40.72112358757332,56.36776957684692,-19.80037073879962,-59.16445581875668,28.974424997140105,30.179185046767113,-27.314442110455786,-40.87766257501066,22.36895720055921,32.98580095554116
-17.223303845162505,11.635281124390676,-56.76876786698336,-8.988287017410535,24.684443914706,29.32104188597583,-6.876655012613755,-44.92268660622136,-37.02172303009675,58.30608918203172,-28.59115355665457,-64.03829020058379,35.593647635474426,5.281141448581453,-7.33611818989457,-31.332526712202228,30.63195004529627,23.53709748727929
-3.480033560702277,14.428882598386593,-52.014978426180875,-21.80956049651239,4.889840157382845,27.62960205920092,-5.607431789921602,-24.786849869644847,-21.508664418029277,31.24489148464561,-24.10435553902815,-48.50756141273691,10.672535300911214,-3.3058996847302318,10.786375984619884,-16.027851043670076,25.420624141953873,5.494732115983362
7.62357850797347,9.796113761052293,-14.351553760662753,-30.528759830333364,-10.408317683446251,13.533070143719588,-29.337797992918354,36.56084591134403,0.25147733465120936,17.958247081625068,-13.273612238537323,-32.396733499851145,-11.51100223776207,9.008006040781972,20.217017201603785,-7.366220625810089,12.789837934725035,-7.273921359048338
5.052100059531561,20.881885611225034,14.033435493764635,-44.61865566108659,3.790382749501007,11.250553617751896,-37.051516686744534,45.27134721293816,-2.79654210001707,21.86415471326866,-3.032557715963639,-20.686289393997228,-15.331686182782235,34.11729558680475,6.990768059411629,-2.5156105698719493,3.677335739638601,-7.639873567328718
2.965796360513301,49.05343432611828,7.0654475866003565,-60.95416955005346,24.14577001341722,32.69628572750468,-24.354002644960982,-15.061811506098811,-6.336027563076261,30.560056626892383,-1.3890597279185073,-24.704460612865134,2.2379112083267927,48.19350851301345,-5.45449355870033,-27.55068457266114,2.8684230841521288,18.654879525860796
8.298260567094134,64.32986271534418,-1.2705473498141693,-63.4217430726746,38.157679367685,26.795258387400462,-10.483842888874266,-51.76140004419145,20.68810106594039,8.693823542876267,-1.3116926530496134,-20.134399095965588,27.42808382385401,27.310525377333338,-14.57964537384008,-37.451269005209895,2.550555836408088,36.160551852474846
-7.076042165718059,50.40235841882634,-16.34564682735705,-24.28654624573593,20.82575286082372,-5.866590860275329,4.070662549310941,-38.557451528895,7.766875118145169,-1.0581420405773905,8.625568782153508,-12.64017867985606,21.66405703303979,2.4258754179411577,-23.99800197583157,-19.619557454066456,7.509037141237081,35.50197358439303
-0.18781110349452534,18.20861978906509,-39.331663965705985,6.74366338987463,-0.017532532451980387,-35.60131677650699,32.5909558914679,-22.91159297128532,-4.669480258870817,1.792416046912594,10.746744584605194,-22.436872263059755,2.5242542887389057,1.2743811611392948,-20.330430436496478,-9.407691402038504,7.88050790264008,4.862531011160147
16.755632118265382,2.9054659601345616,-40.83353772162668,7.98890003345732,-2.9851131864111853,-19.63483576469186,-10.861783717036353,31.01660082774884,-22.96879636035181,30.624573094272748,-1.1005306583485321,-19.7387856854957,-3.3307335891717713,6.375330157379722,4.919315870357821,-10.429044278835654,6.985402705596471,4.106391308843576
-3.2191887663074152,26.856553357259813,-36.86705478775113,-10.785029562153813,-1.6513989519270496,28.75139415423055,-47.57542634167686,45.5892608423122,-27.599602195479555,36.609421352159906,-21.837981049146173,-11.186557866642424,1.1693865245006165,2.29882120707678,32.317370563978436,-10.671748592495225,-6.895137100593004,13.31134759314571
-18.705494287287,20.822579433047533,-11.416261739626496,-21.745636583306766,15.311921543364488,-0.4052465152950355,-9.091903836415543,14.458668106739403,-15.534583643367858,20.137551544107247,-29.980829201913217,-5.666951876156354,7.723729649714924,7.209214425398384,26.316340779346937,-20.975845555944034,0.4191664290164052,12.164561664255366
-7.632736560596035,25.331542866371194,-5.2043509063847395,-21.670182690800075,37.455481104122875,11.54939369809282,-27.835118585445922,-9.932937077075477,-2.3990536751631115,5.623355927905401,-18.30232669647072,5.902297152159704,23.754304606941574,1.7702964220344004,0.3930198066246424,-14.680801695782307,12.717196043519202,12.873222447960046
13.299510475413685,6.59390343732707,15.36302680504113,-15.24620655260939,55.697118377191536,11.098871742267011,-16.987345420747765,-42.03886674879658,-2.353457828475558,8.301396670881626,7.631111970148741,6.4311833524571185,54.14401664805161,-17.240620360849796,-31.68282526809898,2.5492069309364744,19.451982121704642,4.890265093615529
15.965718348733756,5.137662559647093,-18.562747835631864,13.73750939737618,46.20835072978558,-7.909250085061055,-10.240509565066676,-20.139396034180912,-9.929034487750588,-6.1062408006389255,31.31540638892148,0.9980113694312109,49.67338070288065,-25.702057530528656,-39.3442955065795,23.29216737983063,9.588265030078606,4.036214282941338
2.8072323628247604,-27.475378186688893,-2.1948311051433684,26.70619024884354,20.80576816941373,-3.286826692089728,-19.31354377374581,4.983482857240327,-26.78603563053914,1.756462543156534,35.26989967348687,-10.397113266431543,19.424580324824326,-17.949850867636574,-13.020905579814977,14.735056683573006,2.559998735626235,18.514290682835657
9.07839967026165,-7.845466554776499,-12.292117307981808,13.894094069684364,10.44687527754739,-7.06559402338584,-19.108411841965626,23.07573937656012,-22.943603942423433,15.67826916241986,13.146918179123848,-3.046673522097123,-9.258205712329953,-6.97246580788258,25.216722525466785,-1.6374422163698537,-6.22266820043658,3.7925350242486813
8.118561390399623,23.987767692755465,-47.97559654528369,29.40364051300498,5.95184297060311,-10.944639833286155,-20.660440500439904,43.317232709504026,-22.034979911115112,31.06921019444473,-14.252359168632971,18.752501936013992,-22.898199858913998,-1.852059475059467,47.438502867912014,-5.024248187427997,-17.63859443013672,-5.753558165774509
4.322221275828093,15.191532406332845,-25.943125547961035,19.81607677411767,-0.39429416992025423,-22.638919703324913,-8.832681222516028,66.48925578156799,-17.810133964690646,32.011016553850794,-27.786934264719317,26.972756583709838,-21.593052503742896,18.114820447443726,23.370564159775867,14.731028582460706,-15.37887768611495,10.481764070723356
12.142631638464135,2.9734734606499043,-7.621331343910553,23.803898339590994,-12.59550984009213,-32.67562535424179,17.253785338903047,58.60694537029768,8.481155822119232,5.417491288864891,-15.05419235950488,32.45421734314722,-13.25303524079856,25.193385855488287,0.7675698674915417,17.881675032817363,0.9471713035212685,22.810518338577033
5.798057235607135,-32.88151280858858,36.091884626885275,33.45685790023371,-7.506928344846489,-44.86339953171262,36.70020333843647,44.377739376881706,22.267986908835468,-17.949239519580264,-0.07785510994779266,38.22439467466103,13.547810951693224,-2.979976968738315,7.071373863501487,11.068406992435733,11.710403719417812,24.201316802404524
-11.000598211738602,-31.630261780106395,42.69566103978535,39.106867990266835,16.824594068483567,-50.60835031726588,33.19773155311368,10.227240838175486,8.218033244910147,-9.768495538901938,14.70071701098,26.021414321048884,26.680091121077144,-17.967021471015286,14.058918472384164,-13.130771979804834,8.512309483704168,26.177742132271746
-8.077181902697346,-10.558141446241157,27.034067012053185,8.722217739300268,29.050909467483336,-25.00774149723447,-17.47274737525641,-16.500354839970676,-19.313076502527053,2.9084627062253396,24.398720585908904,9.126854612636699,4.756759915454975,-7.951154983117972,12.355090176196258,-39.090629353375874,15.083773637724718,7.548033966082991
6.853257352871495,0.7446067438487745,-2.298923565554219,-22.247306272524,24.386772974706425,-4.390238215868017,-27.12629110448929,0.13302811977525675,-30.05150027392035,8.46029548029556,15.832444790427733,-11.189605738332874,-25.756937104464036,31.364567833750314,7.917040951032849,-20.521399906057802,24.68646490235053,-8.24998086066827
11.915300048591897,-1.5306134225882726,-17.470761956288968,-9.367406425410646,-5.66405663796548,9.876967070732057,0.037821324345295615,17.64629939457328,-25.46215977059982,7.375220716985469,1.3068494289919421,0.326607868753527,-28.33700883822559,52.030200000162324,-10.485839215474634,8.689679205361372,19.546725957425384,-18.970205125027224
18.04652904853955,-31.934747697860097,11.694886279129438,12.888759749493609,-24.87057779934552,-1.5423405567153408,14.800093441798786,30.570651398587195,13.693466031806633,-9.917292947731084,-13.416173879597576,20.335428174650744,2.4853728168213465,30.412570483467125,-23.321971930418997,9.381855114595357,3.0826276827886048,-22.268883821301692
4.641078896758496,-31.580119340263437,22.404186809206664,27.333453540969888,-20.83027967270921,-46.851391917820536,51.633712839126474,18.593299263418146,17.883014215974836,-21.053697870671538,-9.781569201285254,35.75085276247889,39.756664662295556,-8.976227207569078,-20.33726386658625,-7.8978330759842255,-16.697846666448182,-24.982089430319913
-9.16021381839968,-18.33803341650556,20.712011844488796,31.03696504737765,-3.406618270067,-63.8421854682496,28.603841610119034,35.52368210174818,-18.557714214465655,-6.99081154636859,9.96462105948508,39.83463435813486,25.761133837831046,-31.66301141010053,3.0582296070332067,-0.277632061070582,-15.966161342349885,-13.535426616597821
-17.88859425530882,14.041668788639871,38.55253438085577,-22.876400010215576,9.919644609684973,-49.29199298739097,11.336487936456912,16.224110754641494,-40.94043295496636,7.368563539055159,30.587875324257496,14.813202995448648,-19.57905056740738,-25.73353976231565,27.821280221235067,5.679560422024345,-22.945357498572267,13.340624861753652
-18.907380098129074,34.210918027131086,-12.74738210081,-10.185976563036201,-0.090094172592039,-48.318665914425814,38.01583575491751,-6.394733612763906,-39.401756505274946,11.477310812739795,44.27566048297542,-23.98103552546153,-33.86060390434703,-1.6371937120732447,40.865782048308745,-22.155642376607272,-11.463116438742672,39.23953447844967
-21.982420026241133,15.99750728897051,-28.10791821532127,3.2869367135223646,-1.6970993843110769,-11.50736154671324,17.917852755473973,-33.01643320662858,-33.27796172605743,3.870481688436211,30.42227964112094,-31.820693842747115,-25.872735423305464,13.770143639526536,19.339855320297865,-35.54030491855093,6.46870272896367,15.820690910632257
-1.3321432448548958,-13.840273248101255,-1.18123047378063,20.66740419001484,-0.7608676901681513,-34.85561059292783,24.67648402639973,-10.319840685675494,-10.166557977163865,7.79053402994357,23.403343737289386,-16.713562566969713,-11.338355201790261,14.726659756209516,1.7206812347622602,-26.368820731404846,2.6270546169624795,7.831146178938206
-17.89505008124293,-22.001062759735913,42.055811926409106,18.419925628386572,0.4724387236499865,-22.0728518135361,15.224675948174468,10.229435386528047,-7.275184645258869,5.658988560480755,22.730650583524877,-0.5348297851093449,6.5198161997766775,-1.3067537752442426,9.200021132941817,-10.55938531250791,-2.870526218027175,19.372495978378154
-24.893151314046065,-33.778142420970255,53.262716510543754,56.50636700095678,19.288203829401933,-12.612781194632582,24.816883269481046,13.201491832897617,-4.877016650169873,12.417391751049742,18.736170496670294,24.821244178753986,32.58464948430111,-18.900182479509436,27.422219088100867,3.587111644406935,-12.367786884362786,42.14380334909879
-0.3535214905709161,-18.018617497290947,45.623366222487995,45.96053890584532,14.67013890478797,-52.86279275790467,19.272908300592427,70.2771289651093,12.164859266008683,17.616275963771297,11.322332385609794,32.108298524900945,23.98437930930328,-18.522088086836625,17.519526538664586,28.375565651606788,-10.434767227216835,10.421380518625057
16.953652750212804,-15.641003345924755,21.286318424022948,25.552574332535496,-3.713679433185824,-37.64546637393926,-5.215888636788161,39.950299667999964,8.986595370919943,18.32581792632217,20.21608645122238,0.6230424122007019,-17.132542529133943,-2.6139251449456156,5.664249996033026,7.457482902287801,-5.567654877650861,-16.0282637673038
17.55550913146872,14.273373059580528,-34.29934410235278,-0.42057774846753215,-8.519125354273855,-22.723336271540912,-25.406952342482825,8.159832923021906,-6.599221669950865,3.5106003599622646,20.2218224637856,-20.024240813749856,-36.07780105064421,0.8941803391478187,6.700398259960924,-20.006358593584125,-22.47382379306997,-0.6811624211654639
6.627848763015397,4.6337263120503795,-23.964084932965562,-3.442850594110629,3.2811479678121813,-19.42466359798422,-9.952134290848624,-11.715143873566676,-6.955481988740968,0.12406537831367359,25.988288196788172,-35.3022320385535,-25.136455235343753,11.826736004160717,4.905107618410118,-29.406182181656842,-12.42202882336169,13.297936243639745
-13.290283816339418,10.128475128142348,6.393041915422231,10.919269421650979,17.42906568849787,6.43079864308924,-27.60246867111055,7.571895143789961,-3.1175388607333865,6.017647067836638,25.0153796890371,-13.764985247446777,-1.0079999966452462,8.308393167033222,20.493562891710617,-23.964665257673087,-9.39713220915439,16.338547132078656
-12.315674367263384,12.00741982167736,15.267579534769595,52.5292170342381,5.213205799607236,37.16703858846097,1.623749517371888,-1.4605326892218784,12.336569274383441,25.39053121590419,15.154713459951985,14.606728072999175,6.6195894660719885,-1.359956434935131,30.418570191523735,6.865257993717869,13.16380118279772,10.882087855557117
-19.06209248233894,-17.65946467271649,70.72705419286929,50.292158549612694,-14.518535838516815,15.263687465344546,36.51497074895124,15.87592231794728,-1.8047486658614034,33.43755343977342,7.0510700198912275,45.61378079344016,-12.898403519705223,5.478265454511271,19.347897287495787,41.20828547158579,11.998420752831837,4.838810203033546
-10.18938744061534,-14.027348080984657,63.394877003836015,14.559813677831844,-19.40258625461545,31.640142493206454,23.066482551445603,-6.630672958126251,-2.4744520808142934,29.475009883998265,-4.666639459523568,31.40403681622402,-23.91692755575717,19.154923826593325,-5.003461173024089,38.43883073426066,-11.623696151308714,0.25950234771545144
7.564010121671378,-41.94087681216846,23.349710623058073,8.907368622543379,-7.58349939553136,31.412795763427155,15.380691824468494,-41.05019063168101,-0.6102287260170325,20.241183723009144,-6.033271200694374,-15.717471241377051,-21.16248913846964,38.791079009722964,-12.849861044357851,-6.6189312660489446,-8.190050131049336,16.28505784465483
13.201642157000126,-45.24675501025821,-2.7279678937493284,12.533720222265053,5.020460641331525,29.913955349870086,-41.42603145949337,-31.913020545242507,0.5651970521284202,17.747874950073204,-11.990372432734116,-28.562060094393757,-21.236929225469865,54.91390893103397,-29.875254328040683,-42.20636139089369,9.408560664367645,17.270378955188466
-2.5540178744052744,-39.66778132153597,35.06502247372626,-11.671079170537062,3.174632535725875,22.065462389464784,-64.73521811173578,-8.614129134652318,-15.452349815999694,21.99498045048135,-11.990820118375208,-13.379666409042589,-14.765130530036721,35.29633680731725,-26.879942791219996,-41.76051580709343,12.558440302807515,17.571131884363417
-14.116680549439696,-13.582584913679113,11.238559966680423,27.40763372141383,2.2112262670626546,5.816548651191816,7.661134500551562,-30.724724921250647,-5.693478722775189,2.51318119809895,-10.331467616919408,24.45869336638676,0.9872973057700083,2.8879077941898394,-5.1334428260610645,-13.777577776178521,5.654207376978217,16.30837643917628
-13.576104634046636,-19.921558954576042,38.489749510216456,48.22563573965412,-6.26838036308806,11.343500778901582,30.25301689588469,-5.469942167753214,14.900162965881051,-12.767514131371797,-9.063040147597226,60.14811297415129,4.437966775434042,-10.279664333101932,2.6489371666117587,33.05095553516612,1.0007557679784984,-1.264225535220195
-1.8112426881910455,-38.27413155158181,31.758770712877535,53.322016124953436,-13.182075352502086,0.2668724136368201,28.236150539438853,15.196313639220872,31.582245288307206,-17.694773724757997,-17.853566533601544,48.961507567925615,1.1533415881503348,-4.987667666903629,3.2056161320284935,31.145971186684154,0.16062625945410858,-15.126855488925138
22.252110390352474,-36.2178265800069,1.2997560079657422,34.59116859778742,-10.326667604744717,-5.342641134493409,22.89994849626914,7.250250371249688,23.454002573583104,15.759067301057282,-15.804202800275007,-1.4836586584517262,-5.839216307362919,32.14298087473505,-6.197787436398718,-5.625087002528122,24.325563702792692,-14.048890189776728
17.6953343432126,-22.932363046441402,-3.374752195996015,7.658315910350764,11.28229469176985,9.847271848160247,-20.131086817945782,-28.722173891424568,-19.738635256639206,58.589552956727914,-2.1335993023388617,-37.67078338680928,-1.988732116933237,36.1698556725419,-39.33097932843237,-22.573838396452487,29.842571780279677,-14.339187750513382
-19.0949314158038,-15.312419294090041,-11.854982568945173,27.797721520987906,28.109234713640614,-2.3086075911656376,-28.8831727181254,-47.310098636237456,-25.04534176354919,43.90102353786943,8.021382104152252,-45.34167563650939,14.16963130999436,17.249332201905933,-46.87676484187959,-34.934842901745306,20.032025449504186,-6.231988214781383
-59.79796346691779,-18.533742755106168,8.281499638141934,34.36390959205009,27.75155688150813,15.124230359149994,-24.05972062240814,-44.80251866795511,-14.829742961665339,4.213398354338354,-9.265316908171334,-15.804635476519909,28.280156782429124,1.8466275109761217,-47.487736042558765,-8.625500300389334,0.5580836889686562,-21.27075417782671
-64.2764488117077,-18.63116174550455,17.483373119750333,28.040463386752684,11.381090402483702,27.477335587318613,-38.86433136941073,-9.187521148877508,-15.361772546608753,-19.164207017906882,-29.676830898253073,26.819036411872663,11.533781156687276,-2.420986182734719,-50.05071061387446,31.74448911159714,-12.27040259675257,-47.052963573084156
-49.03456067366815,-39.140074795729575,22.6843993012847,11.36646157500579,13.275637340821639,23.910746855790375,-39.01910602036542,31.11650207369246,-29.278189176996477,-11.09495159974876,-44.91216367051189,31.16152985396252,-8.432385293481767,-6.100577261096337,-23.803463383299036,67.62020618797607,-4.488370018966226,-48.71481243425835
-21.103668396423473,-17.364093949211462,-5.022052599727111,-5.794688262719546,10.094932076244929,-19.20866079436849,-13.391028690133815,36.94880746572212,-12.3400343264969,-8.8842009969384,-41.59211641028649,13.531848525452311,-23.122149712117206,-11.82893803642593,-11.031758461157276,60.426896267323585,13.747781241775462,-38.2682103311001
-0.40595991848402235,-15.022790301400923,8.583958644679186,-11.919398502660947,19.90558985583964,19.80070520132451,-41.37580723214194,-25.77314629671627,9.475737280461622,4.558040420407588,-31.6308448780652,-1.1671229008591821,-21.109587355869092,0.12076084077194871,-30.876475230894258,24.422643274454252,0.05459500150511509,-18.05694877402128
-3.836230122601025,-13.36575525326834,-5.05324339354949,1.7815002792528247,30.50032558641261,46.894489600329884,-48.55820740703286,-67.10657084227591,17.614161066315567,17.51273502628958,-29.188632755392916,-26.411991827567356,-1.4181519602050354,12.853695388641663,-48.27844701864959,-1.4270594721981298,20.741678090486808,-38.6677410701106
-18.015371334658685,-2.3341173275951608,-27.280974766832273,18.120217217984617,26.546805650806558,35.900466681865495,-6.51978920976943,-75.33252793503482,11.293983040488111,9.081017812592966,-24.40195957428253,-25.483287490089825,1.7719160354917518,24.416675137187504,-38.72554284491644,-6.86809313974178,30.59349633836262,-46.77946314849519
-35.521394915841796,3.2282728949609982,-11.516439411603155,4.967325858405607,16.736499728568205,23.342679989265008,-10.769783510555774,-19.786478043775,-7.043343495422219,-2.9635108363773313,-25.27867127094573,-3.5567099715235293,-1.7736409723741229,25.1415474664674,-11.104578663271177,-2.7404096671686955,13.691835854963939,-33.60291854051306
-30.1820230107948,-34.47200249672043,36.77158168116408,-3.985284686092374,9.66321904880974,1.0179281531729358,-25.663074828736928,43.67136029145121,-10.053639649201298,-29.36331025142121,-1.4471219063680407,8.996343294355853,-1.214845646970156,13.563409302069287,10.17004903143401,6.170819978312258,2.1660891410943037,-13.10316230550788
-16.157621338922354,2.0474469320857303,17.874586727426127,-15.769004160129725,-0.9232022987271513,3.4971000383305118,-26.687528736710703,58.59482175600684,-6.623746276092746,-49.415046924517625,20.139240951844837,23.894960409033434,-6.122188516586297,2.182413840009554,3.516018289433104,34.90494714618878,-8.476005603818315,-19.167426551297112
-2.1397190818735154,-12.215155702713403,2.008540227139431,-12.512499727376195,-11.800129993431277,32.63574160330606,-27.417528164009802,11.214173113476608,-4.370951776800974,-39.48565452271836,-0.07087883604915879,19.06865085055225,-26.456791221580893,9.65115139633637,-12.023372923245615,33.46126930797434,2.371327296951195,-29.139109896654077
8.648991098742659,-18.176745759088796,-16.9789476622389,-7.692574225608196,-13.299519350629975,43.316025830447195,-16.329415557810087,-31.965656866260236,9.79089817766543,-15.68876622748385,-27.4088950486547,-0.8925134499133394,-30.089289530490927,-3.679459020747043,2.517352301862724,12.972830305261514,1.7974201977287336,-24.17026087369904
14.646001174903134,-51.48226524965994,-5.395910354293868,3.8665968474039385,-22.023258190696346,18.545554886403174,0.3267591606420037,-33.54174638255276,26.87731045169346,-2.4389223158913333,-38.436861775105086,-24.36710394253769,-29.519906562434155,-19.547458880078704,5.243061928294155,7.131612988150758,9.529125673569586,-28.284673984934916
16.632591911190396,-45.040712368822504,-12.559461921375501,-10.159735185005637,-20.490683357627372,25.12227200021048,34.36762918700389,-91.17182867268167,33.41153765687755,-14.58020362789064,-41.455598895811434,-28.50305269738334,-3.459287439016096,-25.648012112327685,-20.448021558776738,-2.61728973284173,19.902282161677462,-31.911879181299806
14.218154199028124,-36.938470341907205,0.6911945950966594,-17.544553673926217,-20.225480776254223,-2.482117458895491,-13.719994892615732,-20.282768420484423,30.370179728216378,-38.4406298967966,-22.109330881072637,-9.393894172251036,0.044927140503207674,-13.484934762156112,-29.340326405559594,-13.930027520908661,14.16658923228877,-27.043928324711533
15.703620792482827,-33.03486715120716,-5.5859148895695405,13.939157181441514,-25.62232153235785,-28.13420059836931,-37.19615421267717,41.2327112734365,11.014876906449526,-46.383162951052,22.72707731832438,3.663204659229878,-8.557917251889442,-12.74621945526692,-6.882811567527808,-21.533016795158805,-0.1583231199070223,-9.872154190430688
-13.774793720631877,-30.79066424006841,33.649304661048006,9.192555977992967,-43.02903164162587,-19.509216339014625,-39.869450680906596,89.07767530130971,-26.99813048533123,-33.5250169321242,61.41260482940156,-2.6130547338018384,-15.400454206819914,-3.021438254807082,16.65066090136829,-11.558791799857808,-2.3690316363052553,-4.810974565663189
-16.59899187842385,-44.36609584720635,45.25124446115862,5.618517217361838,-36.800608928460576,-18.89291700260936,-21.056229138993064,101.57211025209277,-23.31633117508536,-17.737658226794064,41.21215840623601,-10.253495051663116,-3.6855851754143565,4.068097936573703,19.87308285310671,4.56675956788048,-0.7664635141729867,-14.594787067848545
-8.296520631852836,-17.60782266941414,16.622093089849937,-8.306613087125115,-14.652087854922872,0.27765196226338373,-6.440423295771399,42.19202562023434,1.3568635787003593,-14.353450711058393,10.56406301708872,-15.156339183469761,19.262326513491374,0.9050455404580777,24.36685128106032,-23.15705690309368,-1.1124463205843167,-1.7229985508840624
-11.719254503410124,-3.153227410011535,-20.011059662173324,8.726347871824476,-16.037268398777297,20.814777606670955,16.86884140986787,-16.991162680172163,25.34146690418044,-21.028705975254308,-2.3085092078363996,-28.16144542505705,13.208259040855511,-11.924688819908653,34.91723128377256,-31.545613567021565,-21.180711251842077,16.22602048451797
-11.046599996165874,11.693335748615663,-26.464003353705884,-3.928098366218201,-26.20990469234186,20.354886840369318,2.191218909905409,-6.347482860554569,25.004338916088575,-11.786561127455371,2.301553059025161,-45.2646968153291,-17.35556449219122,-26.90149889043885,41.270195320288735,-7.0244137401760325,-23.275394676959237,16.595698805854443
-18.095101165034066,8.084062783028958,-0.0022886952134513194,-4.863112320616857,-17.337613587269736,-22.97730463598928,34.87962859867531,-26.07377385418721,2.0056962160079213,-0.1038788790946823,16.386398943548127,-33.164655678492636,-31.119953014610772,-31.81820675951522,45.476590387657346,-14.047494092202113,-11.693462777436366,21.16373866340726
-20.755152843059225,-7.242522335659691,35.936257780360116,-12.243076440798294,3.1575440059535382,-31.250870604039296,-4.794263686357984,1.6631850626301459,-6.3491676488494315,-9.516267722379935,24.711504023961886,-13.150562492084624,-7.3814986859167275,-46.401715363072654,45.68095310381042,-23.122144276538695,-9.189196157987531,13.230694378563829
-12.874269146488562,-5.9655351327432395,26.370358024442915,-3.118464964887675,0.31402461436360674,-10.227568042470777,-69.36874031290463,47.85904628850701,-7.6775177932368965,-17.95317001285568,20.53856644836945,9.504210137852665,3.2730559710902556,-62.937102438388486,34.94961678038199,-6.708807765496884,-21.231456943470697,-13.160526656798018
-12.323765426483344,-38.280914417105535,40.93000897016748,-0.6342058065835481,-14.735261710196475,-17.720729317863753,-45.46310843447449,42.78618397284992,12.08340078929055,-30.688193816891783,-9.316127348452577,17.61204369585623,1.917912901488064,-47.732486592013004,7.8137799756090445,2.8678782253185418,-31.80440594411354,-15.235803093913972
-7.384658962459204,-24.304489490504483,6.46959005153578,15.13183624748568,-4.489814878100499,-23.84703604560383,-44.407134703322086,53.242492371870604,36.23415678052002,-23.014019416533813,-31.453549788287937,8.145690270168357,22.830905626209777,-35.651719729746844,-0.9603706985824392,-5.720308452953102,-27.528964464618486,-13.405569852530698
