Fp1||F7,F7||T7,T7||P7,P7||O1,Fp2||F8,F8||T8,T8||P8,P8||O2,Fp1||F3,F3||C3,C3||P3,P3||O1,Fp2||F4,F4||C4,C4||P4,P4||O2,Fz||Cz,Cz||Pz
-6.963617494410087,-0.6188513481461779,-8.487811093275717,7.474503445146894,2.9539215062009703,22.077784801597645,-17.034570091675786,-0.015811807450848647,-19.823693173903514,12.035099601579967,-8.365438126571721,7.558255208108463,-15.123080598678563,-1.6814472016223752,10.303237829662706,14.482614379227362,-3.3916864177812123,4.095287755009913
-15.165468861968364,-29.45193228065405,-16.52383606724556,15.534655540102335,-51.3939864033578,-6.596607148553616,-42.27251397022907,-10.69329163753062,-45.80632414038037,-4.928493603081614,-18.048716254343823,23.17695232793826,-65.005226571135,-56.806981568880886,2.5883357509572242,8.26747322930943,-31.545535597921166,-7.423696398079764
-9.795490559583747,-26.056119980694547,-22.99583441816008,22.52157202225729,-30.352490994574573,-1.4800467171786664,-45.148144056086615,-3.6935599587732924,-39.36896946659996,-6.167470195670223,-21.675849240019765,30.8864159660069,-51.120151995660166,-48.16356017597328,5.911338559735441,12.698131885211556,-36.65308320191527,-2.143058352890499
-12.435955972705376,-36.42823547464525,-28.782944160405158,30.48622391839516,-37.43888726151608,-5.0532648932436075,-48.51340497474975,-2.8451583689049755,-46.60618101539827,-6.428174158926042,-30.8681921622699,36.741635647131744,-69.66089209577069,-41.47469359534868,5.330826460092641,11.954043732543862,-43.32416937366988,-0.4731143022884652
-15.957761155432642,-27.657646478935817,-32.02988653915296,31.42083366930475,-35.44566591666722,0.3601735575200422,-38.98921763365777,-0.5308362627367842,-46.22866768965723,0.7347788706846536,-35.37176639917621,36.64119471383051,-74.14252148723774,-28.927612578733076,13.444861345066755,15.019726465298744,-39.8399540280638,0.027729641811804484
-19.286580353891946,-21.81502910090186,-40.15886785632721,36.36088150230462,-36.482475590140176,21.20606172102434,-49.29095407331812,-3.3913731601815513,-54.15473498048301,4.774325224293735,-35.67494474330325,40.155758690574785,-80.09277729879685,-24.487222500773306,20.09725043998958,16.524008256906413,-42.80234069051276,1.5080928939149345
-15.78159496660998,-1.1267021407349933,-58.24830818914202,38.37282173582955,-14.37712982188171,34.0469218383051,-48.5587952151603,-7.227539434335652,-53.48968515697944,13.112424185324294,-39.2974571914115,42.89093460230806,-59.09341092555927,-18.582912011247874,25.971808727061195,15.587971576619672,-44.39879669819563,10.706507260052675
-15.892089296972351,-10.417596479491793,-51.72758445974168,38.72635696086378,-9.852993095320778,24.722758772787245,-28.58951533778336,-4.324426766284988,-58.882267897672165,18.913003758805857,-42.62605120090431,43.28440206432757,-67.20011613113181,-0.37451787028733285,27.553066783752136,21.977390791016283,-38.76994292279291,12.095538258009888
-12.19597962735702,-25.17564813794771,-33.19476123054067,42.89047052717137,-3.8668917875028477,75.75473711001523,-52.56769434964933,-9.721380187674118,-55.29327711465993,21.297112896599156,-41.070896594528634,47.39114234381446,-53.72867369072307,-0.526415217886953,39.39223535847102,24.461624335283954,-33.72848248156154,17.882547927775953
-12.994076874290403,-15.61527579712622,-48.25621820627532,43.54097959930489,2.897485443368728,71.80943658078057,-33.77327858730271,-13.847994059733384,-62.93794804907227,20.264719029265898,-38.63604403274538,47.98468177406382,-55.984485077649026,12.212029141201512,44.399415469365,26.45868984415655,-34.743331257963845,24.942631291545233
-5.981407307438522,-11.326804762621416,-52.282582011273774,45.26794326061684,7.803296446299209,94.04080643329759,-35.09786978321202,-17.87621395149817,-58.964449595182366,20.210386733798515,-36.20049614462813,50.63170818519424,-55.99866754286315,29.442406899862874,46.676435655677615,28.74984413217481,-29.216721651191488,29.857908199273318
-6.783109452113576,-9.771164450306244,-51.42650279244345,44.65348338295181,-13.954606549070437,103.77674482808607,-35.54506836451482,-13.21221116076891,-63.8809842515012,22.30597402975898,-33.47136228695673,51.71907919668654,-54.45496327610782,10.148625446164708,52.18061927461131,33.19057730903383,-26.32856047251655,35.06996082567384
-1.726998423742776,-5.088921726485124,-55.55162332500174,44.139183593867244,-5.832472303261818,114.00609024319677,-46.63849967773379,-10.403073748113023,-60.59752148693376,22.84045082836755,-32.20656393352041,51.73527471062318,-58.48252177693574,18.199005888931453,54.95504299545618,36.46051740661082,-21.879642422161318,32.76630642082238
2.155671063443485,-5.385700914410841,-54.697063502535194,43.9204967222911,-21.63979437787086,62.03292807414776,-3.338118240963304,-8.765249309646345,-60.44243002922653,19.274678857159156,-24.78887905149387,51.95003359224864,-70.7182328598017,2.323394438490695,63.59378424131445,33.09082032564277,-24.756897600269976,39.841868159714004
2.5212170738071134,-6.559909441058074,-45.93329875012996,42.23971790583851,-25.438601510707578,71.78528040889637,-10.04005514853203,-4.19716414697073,-56.48207804657772,15.026640967499779,-17.956772935096602,51.67993680253084,-68.0173392170253,-0.07513400651124513,65.59684591385799,34.60508691234784,-20.018765673583275,47.702896597895496
6.108128697393958,-11.834285870466832,-39.22162431919507,43.784550139298986,-31.389341416991034,57.71531180677008,2.3973652955679263,1.6409491986129794,-52.52518195013482,12.928372590522919,-13.663481124769348,52.097059131310864,-60.341053649116844,-12.043645131636733,64.67541301417452,38.07357065052647,-14.40370272459868,48.1462707031849
-2.025122152816156,-5.681283293705809,-37.00368749603477,41.523764514896406,-21.71837899911457,47.16752929652191,8.387813411241172,-0.040156378644595314,-50.72027339050803,6.92505387463929,-7.612143296864319,48.221034384971226,-54.037248713201954,-4.089339945357398,65.22427186179391,26.6991241267609,-11.818088425984278,46.44563493801365
-0.4913831569445719,-2.9449126273503943,-30.197520163876952,40.5356887316811,-25.62545031040112,37.31019288741783,12.228230552878692,-2.404489060315407,-44.329026493943736,4.438632230026194,-2.4395981783004332,49.23186522562564,-46.469280970032926,-6.3882982781595254,57.966122209275795,16.39994110849219,-9.722889608896809,43.57769046755137
2.213230539603803,-0.5978189951467128,-22.319000533829183,38.769632212987545,-29.340883824429945,22.18650941475908,20.65700412391106,3.630071533104678,-34.914020144769346,5.176092773777087,3.416598830456179,44.38737176405,-42.324833554955504,-3.2174617730674324,51.88565819659853,10.789338378768779,-5.6767288091576225,43.44886785346345
-7.094966775842291,15.325018710611882,-26.454463124995073,37.006975534505045,-26.028705588895754,26.406552725165838,7.599523381814823,3.3171577609619467,-33.99891959638552,7.281896015799112,3.9015890980655037,41.59799882669891,-30.959320445245236,-5.41667715060484,47.17837427520277,0.4921515996974932,3.250062214063699,39.4185588482446
-10.153867589721559,22.557599330102516,-20.92408467253263,36.90801556422165,-15.103034993223805,15.106827114054934,11.43528861407857,9.449885311470416,-24.3960114143783,5.5801385948714035,8.48809517408357,38.71544027739175,-18.81825617604135,0.6863018007307868,36.7154312651911,2.3054891565066136,2.701733811611893,39.20184007379989
-6.8657032111472915,23.248356051266924,-16.27509379981482,34.56655456447467,-17.462692184392424,13.190367886987861,7.456902517388837,14.508560570199068,-12.453094497068655,1.7309583129046953,5.75008371632898,39.646166072513,-22.698871769236597,7.2790185350593415,30.1651181360876,2.9478738882836097,-3.5131218475822275,37.42764799486888
-3.96874597523092,15.34643854081235,-4.792719308664683,33.88901055039803,-18.947366485774307,1.223590228369126,17.637370116894868,17.028270495293853,-4.224991534607057,-0.8476682912646503,5.453251490827487,40.09339214225769,-21.409533370138774,14.752266666878057,21.37516677678918,2.223964281269158,0.8166225927331414,28.822573799061182
-13.27946998150587,20.727142099769488,-6.789958951499321,32.43404493713845,-25.51423953925548,15.633130444357992,-10.367841260303523,19.450412374194546,-7.329046129613797,-2.5464170678365186,5.0584205055468665,37.908800795705176,-23.837187135231993,7.676285812833415,7.806642267726549,7.555721073682957,-1.4968504115324137,15.82816709727873
-9.406749676360997,21.812034313284325,-4.688604787131208,30.787705568188024,-10.405147857909338,-1.1011275470283266,-5.0732472358814205,16.98971149046272,3.8210326309807776,-3.267675627519962,2.7100174515395707,35.24101096287912,11.327303146143617,-12.58155328468906,-8.977768427600914,10.642207415810537,-4.59412946715058,10.554090703444865
-13.346885476234842,26.218379026805003,-8.54758676562493,25.532069407739513,-20.984150509882177,16.744761718018957,-21.46013434751453,12.282882190764848,7.252219018012852,-10.14050475014762,4.462746477077552,28.28151544764182,6.152976890969278,-12.622141377222508,-16.86834561854124,9.920869156205107,-0.9556192968141248,-1.0622700136542278
-21.09579579255815,41.85641261949178,-19.050689168949603,22.81966840930739,-17.797573345681784,9.404540982308738,-17.437992862737197,7.185377763045945,5.015294118083929,-11.93431040651895,3.1875173225318356,28.261095033095028,11.714752133106359,-14.125334994917983,-29.63467396269867,13.399609361472358,-3.0815590131820514,-4.079183965148641
-22.496960947621993,30.639575192470833,-10.123472821226862,21.28338498717562,-22.818458509071363,30.10195155557252,-44.66774100407371,0.4276047263647387,8.145553788652322,-18.317255233636526,3.0835381009786857,26.390689754704137,3.1098289490229583,-22.657463967309784,-34.09280505568778,16.683796842795818,-11.069652356533977,-11.875667814754351
-25.06991184083268,12.97829253768447,6.31964324210043,18.87249382763868,-17.882514676763705,31.86388646278972,-38.597583648118594,-3.888853721325236,6.681882372853114,-21.08613564097041,4.639023323377337,22.86574771123248,8.07293319898605,-30.601063712065514,-28.38709157413539,22.410156503828553,-22.185526192922186,-7.947472866763732
-14.84947622949219,17.193266772860305,-5.952534565667294,17.24726020191747,-10.802407120697335,24.749351943013703,-28.915442328009746,-6.838273581017992,7.2649825917538635,-19.65505193093925,4.338220685502364,21.690364833203574,14.201463375105345,-36.10047691026466,-29.50983328041925,29.602075728901013,-25.979843473242575,-6.357226223603018
-5.702937579906522,17.307495905874816,-14.517805731377095,17.87263037190656,-4.507911816518217,44.30601726495323,-48.14131047382881,-16.233313837410723,11.94564587452605,-24.47342915165922,6.575655373057112,20.911510870476768,4.307592513254402,-31.14760930278466,-28.378716579222235,30.642214505983915,-28.605080496540694,-10.22989124000215
-12.376498874318017,12.344358865009928,-16.153631223405068,14.98687431571488,-2.319433406920293,28.7167775189698,-34.16482877233975,-21.917608147117367,5.4892460823346525,-29.584192070083205,4.026924302862884,18.869124767791075,10.911287174033333,-41.328630026361054,-27.239729017681952,27.97197906263999,-32.50271693403878,-10.580874656323001
-9.479031841250649,-2.4814178007649357,-4.414763729248621,14.547187334075124,0.05992949143696258,34.3303859971632,-31.81086084010729,-20.668488519411053,5.083529182722305,-31.081078015209414,3.820970490212831,20.348552304989667,24.246716217461465,-53.2642707971338,-19.061376149408254,29.989896858202155,-35.42665840605939,-13.464878374042325
-11.854397181065323,4.373571319553723,-6.743188874128348,13.428591423915364,2.727797731408568,48.0609352876478,-54.653790961842056,-16.685273965389687,2.5252310328596117,-28.964133903111122,7.129615371077497,18.51386418735471,3.883521867264818,-35.410924674949996,-22.886783504082786,33.863854403634015,-33.47062641092711,-14.389571558347786
-12.764095151640149,-1.7592166004359324,-6.244275337934074,12.217099263117998,0.5082764935069672,38.75582849633752,-56.69677949342811,-11.628180956210233,-4.724761309389603,-26.944400725079714,6.237826610245984,16.8808475972373,14.764051714724804,-61.500029722544575,-22.21166260470921,39.88678515277806,-37.181685439401164,-9.741546255783843
-9.766566801096271,4.706500902719424,-18.250443094242293,14.526110059292096,-13.141735109012085,29.560164606753816,-45.65474147542266,-0.5166982936408568,-7.486629749045093,-24.143005610570654,4.465897103085114,18.379339323110578,-1.3157532129753733,-55.06542093573293,-18.012463912953905,44.64062779038471,-43.923102514289326,-0.4973115435604587
-7.2562953097851,6.094627083092089,-14.734072514806968,14.105587884192147,-8.72962955758246,29.361004827939347,-42.13341131765482,0.4379569906716636,-3.5142535725389124,-18.60684045315259,3.766911992549205,16.564029175742313,-2.0701335390285145,-48.82228819620949,-10.972668178561257,40.801010857218515,-35.43290369368053,5.823551641222876
-7.674609478559936,5.432505824756436,-15.519833633426064,18.67055030331676,-10.474554117272486,39.818729818012784,-39.78498489599634,-1.8305463036223568,-5.3078287113753575,-11.312529242871793,1.9923319611332104,15.536639009109805,-12.890140058786292,-34.17659887275352,6.427490452914151,28.367892979793957,-19.52372912507813,6.682003809916779
-9.751844509204702,-3.3346890514055474,-3.2247944619762485,19.724826711836247,-12.321754320223638,30.36665814971189,-17.8083103738495,-3.8065588262817736,-1.2460872203951219,-6.75237449869576,-0.4672804228275016,11.879240831077588,-15.123179023171481,-21.675239133466903,21.492621997455537,11.735830788587602,-12.406782103080635,10.574326782483048
-12.999598155685664,-3.6051881925846825,-2.263532742689346,18.24504403337447,-17.20098550642486,30.106979729394016,-18.19616074473103,-1.8767719948831956,-5.880033503845386,-1.5084016677607157,-1.8541535692412596,8.619313683172347,-28.398487078959135,-3.99373060917749,28.168059107182863,-2.9427799356424735,-17.304784008648706,17.98886433271373
-12.43721286346632,-4.8518389928303645,-0.6242860792941975,18.039900436613745,5.259288649061601,38.16095030516964,-20.245037853951615,-1.4123877915334215,-6.123529554346284,0.3177179345058052,0.7613776714270575,5.1709964493471965,-4.961456444096093,9.004640713338325,32.89932141632459,-15.179692376770781,-14.100253889279102,25.019358547372747
-6.404395089613943,-10.102078076434674,2.669386371632978,16.960968772851153,-0.11757362261604243,50.036481267312446,-19.07199557605535,-6.710371492860707,-8.519641236484928,2.2416168461563384,4.644830216500049,4.757076152175603,-12.586582196683212,21.519301148051035,38.81156158012324,-23.60773995565991,-9.531586929203032,25.708735566237625
1.9739184837874788,-3.144767290117091,-1.7577919028970825,15.691893242563413,-3.54597791317914,64.26886594835135,-19.65751777675932,-8.39560315699375,-5.548717996391016,8.169558688042262,5.5968555951790275,4.545556246418599,-23.539085847388993,45.17166279130229,39.94775855378259,-28.91056839622501,-7.798074709700442,33.045519692513054
10.647025244644997,6.742561361878928,-9.120721982179514,14.428026288629567,3.4702850793039204,62.88923157495475,-7.841169606347037,-11.350991268997998,-5.90229236359766,12.632664149615119,10.25811522450244,5.708403902366847,-17.310857981345173,55.5474289731483,46.269099022272854,-37.33831423510976,-4.212152145018628,34.43190387505516
11.704756986658804,6.376066335947698,-0.37627175660761836,9.458407753071945,15.95065874893563,56.542415202609526,3.4862912960876073,-20.36178490750186,-7.334228252705602,20.31845901724746,13.062053755896653,1.1166747985457093,-7.769310035903093,63.77971759772424,44.39656582690893,-44.78939304854578,-0.33634725109752495,32.30936959763252
15.791914830044224,-3.072405997816695,6.311095033760996,10.060553986020661,21.980889159082793,72.67037716181802,-5.304275370188563,-25.857543653502233,-5.840548598136305,17.5548140560346,12.739057179430512,4.637835214594389,-11.223293297918715,82.17353644174418,34.52556370912102,-41.98635955568227,4.219968977313929,20.427856023327152
22.127342886564513,-12.813705377809804,7.62089430730185,5.101510786074638,33.084582214803056,78.06961314438497,-16.146120928068196,-27.54531067606235,-5.913498131811529,7.662046945164919,12.804741547357324,7.4827522413351275,0.06198537635980017,85.63097563885847,25.836005504401697,-44.06620276450757,2.8160704242505368,15.193894584036064
20.65239843294509,-9.468767547599937,-6.408081175700396,5.518970430958731,6.097011544021775,44.3218401269002,8.949683447223261,-25.522758355915535,-10.775769433771128,3.14030307519384,10.622286103911028,7.307700395185073,-28.40649446684762,86.35937873955122,22.33193981137616,-46.43904732179453,0.5301619094033718,16.998143896566432
17.421964240856475,-24.092799758701588,6.2168822847860845,0.6682619076076008,14.945083398293356,52.87372480506633,-8.924247332405137,-28.090807477916012,-18.571851132763413,8.677108775279688,8.340100208878093,1.7689508230702238,-28.658943578684557,89.92535951896926,14.15001211619818,-44.6126746633883,-4.786222448309331,13.926383904039787
19.955787454047268,-20.06419504616221,-5.774640242831248,-5.34896968264108,4.84280472417254,41.71270573234372,-10.294279672013381,-32.905683371241636,-20.121899950932878,7.7682609278055015,4.981546416933031,-3.859924911476213,-17.004198915383938,58.5354915730556,5.294262994795194,-43.47000823914917,-13.62136492732731,6.076293190637415
25.421892933801743,-22.57869561074869,-5.077500167845759,-6.966215708614801,-2.5298048007000107,29.19853378943332,-6.0003520984510175,-37.8189250578078,-11.42193151206269,4.124708802554048,3.67161328072667,-5.574909124708114,-21.762995973366273,51.95642724544141,-6.579024088545076,-40.76495535099881,-18.260295663686907,1.3581661791118087
26.105416613364497,-27.144090270889542,-1.0669454543255412,-9.066348231910748,5.1321336569955935,26.07364840094553,-13.62078655923966,-39.11954592924455,-5.0697760115349375,-2.1559345204273135,4.50790035532869,-8.454157167209615,-7.876193444690092,36.30104235888147,-12.680587286134902,-37.278812058542634,-15.577956660106683,-1.6928491076323873
26.205736713155382,-23.70167624366162,-6.145610764286131,-9.403226708341379,14.25420001079916,6.165855584309597,-11.28017746783017,-40.90917680688868,2.352606913084429,-5.800195520370147,5.146564674967308,-14.743753070896389,1.9019712234958845,25.43684387380104,-22.48316613754354,-36.62494763930649,-13.1916394680866,-7.276024689537056
18.105642803483438,-14.692941042192317,-8.204034724520584,-15.105855999267526,-2.1171339987979483,13.421211239403874,-25.053069260920722,-44.652687761517484,3.813880525024558,-6.905776152206518,1.9742136716588448,-18.779507007054058,-15.280393799573773,22.586641233889182,-27.00219126725859,-38.705735948832206,-19.402238010134127,-6.79747191926468
19.969565679800453,-12.520461208827074,-7.828258906431778,-17.873320306131667,9.04629477844167,11.120470476546949,-29.743692553092647,-36.28736643812884,3.5133492185480186,-5.472720380422616,2.7057536910237827,-18.998857270818547,17.23806016050495,-0.47255232643270517,-29.264999300735518,-33.36480226951299,-24.346304792946086,-6.01899321315954
15.293436143649624,6.253577828686275,-20.35064035712512,-21.80723904231823,-1.6703176655626883,-0.15036218996338846,-21.836296159846007,-31.438451772168516,-1.9669854085775391,2.2099222235950515,-2.326985569809885,-18.52681667239346,15.276387019110217,-11.80655956874703,-30.05280280123967,-28.512452436607976,-20.504176400233877,-7.577346539784422
12.768879639268606,-2.2191918141167193,-8.466010893536154,-23.880218740836817,-18.641718146702054,-16.38726856185533,-10.80360836914953,-27.957472322660937,-4.423849828090818,6.864622934320327,-5.116122313052779,-19.121192602475197,-15.305919704723985,-13.075469817468626,-24.482669367580733,-20.92600851053908,-19.49710486439033,-6.101358387721788
9.661563636999354,-7.469597263693935,-0.8858313633848169,-24.678204408961527,-23.801207705046238,-18.54694557092479,-7.1925927933674885,-30.043708135149664,-4.1501931299467945,3.1201629320252886,-3.903868934800221,-18.43817026639546,-22.45725226389657,-10.626947911407964,-28.961057921060338,-17.53919610806887,-15.660920666965207,-9.501311092049104
8.901302096481235,-3.247584676096751,-7.082984498653955,-24.396512126463982,-24.08246657239465,-18.44594303529105,1.2040400714883681,-32.22832141478672,-4.564011394980547,6.211106882586575,-9.725600575199566,-17.74727411721492,-21.90047147822633,-10.320374010280844,-22.39385915661199,-18.937986305811712,-10.362810109956882,-2.2496325198387908
8.046730772685937,-0.8814928956117969,-3.229060332305963,-23.4257754353848,-18.801868957389072,-25.16640094489175,17.120778443965527,-23.183008454314226,-2.6378892422335447,10.473263395302617,-14.768747275181072,-12.5562247685783,-13.537881230139616,-11.179090521777194,-14.44915592049161,-10.864372240169413,-5.067615846650632,5.985549361516551
11.785497897774569,5.683417526161974,-9.539286386369465,-20.887079192109233,-11.475069598050155,-22.59476912641577,21.905064803150438,-6.521098352601367,3.3860386183273867,12.97685815449728,-19.5216456982158,-9.798701229223287,-5.670348077021973,-10.956893328005826,-7.861335542728842,5.80270467388975,0.7129755773948574,6.903311821791817
21.680201412746595,0.13826410445372384,-5.310293750397715,-18.635926872406863,-15.383494949931686,-7.020037097962039,20.928144896977308,-4.313231734369449,12.238247980915439,14.796084560911233,-18.90613999595281,-10.255947651548865,-6.7940511412115825,-3.1106418820860924,-5.950735858410008,10.066809996469878,2.6820495686475354,6.460759085655841
19.566573092426065,0.3543739722819055,1.7428874194568422,-17.160615449895804,-10.409622048994827,-8.520779065075658,37.62794544022103,-1.3247912100024806,14.44596483412861,17.49342510843878,-18.293451159402125,-9.142719748965437,-3.7251483835554104,7.7698178068623776,-4.225079589679078,17.55316328256615,3.5740499551235168,10.419676812117862
21.65586653399945,2.0347678311693764,-3.8097311918210472,-15.777550845189591,-16.76857232407614,4.544116025632135,45.92991778924851,2.9325230487087097,13.134263929047059,16.381267339016834,-16.902361167444752,-8.509817772528539,-1.1511614263416945,12.700037198724289,5.030611831583366,20.05849693559087,3.486662625105854,12.725261039288885
18.768320147438153,-4.0980777732649045,0.2977531038278123,-9.213226994048146,-20.78822910204053,32.07698726172144,29.32997058274688,3.868809499371018,10.451642820438284,7.650918900401863,-7.799212962887306,-4.5485802740659125,-2.0017698534137622,18.906748346795563,15.566255961926235,12.016303786531722,-1.877023882560593,22.45965448577338
19.986166957250333,-12.380051451703427,10.744918384414696,-3.5224374666676734,-17.976301022851327,15.580838794600453,55.212009851403735,1.7770546399213636,12.452908796810885,-15.729017508823546,12.531631034222563,5.573074101019657,17.16093923599125,16.03828576604891,15.467617220561195,5.926760040510846,-1.4816549571116333,22.825695717812234
17.594505856713106,-21.73695498798443,17.96125066223783,4.6151654621610945,-13.313295277332099,25.369227774994407,42.32485961965426,3.6886299883030063,12.106732022096867,-43.50451867696771,28.95318148263641,20.878572165299307,18.836451474159105,8.3916406377578,23.289670704342882,7.551659289394476,-8.120363797912372,19.19452732630713
21.456826105157553,-27.676568638141227,14.915340494033295,12.172174669203228,-13.244582936908506,21.304801105644437,36.47006219905923,-3.580244278293712,10.878006034831163,-51.358846270791005,29.258182707791214,32.09043015836038,10.056184506923145,7.685788001133886,20.965734678533824,2.2423289029417397,-10.757794313208441,18.40215505013849
27.373899495660062,-32.5427138382133,9.712731458477972,16.21883904989693,-19.137330389129367,29.071516489454364,25.83109147646369,-6.455126398607135,17.751270277864524,-55.30790806358623,21.55219046592956,36.767203485554404,3.0274186519797865,12.944192249619014,20.117076100883537,-6.778535824273435,-13.10490856228298,18.690700579050706
30.951179431892562,-11.725675113755365,-25.576735674333644,17.536399922352288,-17.124094391491724,19.66499120060967,29.060634418960113,-6.010234928049364,21.69122731302739,-40.60542309229896,-7.446283071469713,37.54564741683939,18.551317740785855,5.123631390647599,12.052147644574926,-10.135800475956394,-16.235909099581477,13.614711200751929
31.21213729537859,-25.577970281789273,-23.5692624518356,19.640513647046145,-14.529159174909289,25.70287069759021,9.927726100088588,-8.00735932689999,29.826919152355472,-27.954869459677806,-31.076708482207902,30.910076998274008,23.52197536934075,1.0212695718155729,6.829683732112716,-18.27885037738058,-23.373468332629457,9.619553071509387
33.72331011779535,-13.161203285660706,-42.37124318875972,17.452953794973695,-13.305631161160424,21.598781585687867,-4.614042558356852,-3.0713387955008358,41.474768322012345,-16.77033731167236,-47.97190947541535,18.911295903369506,25.75208051535487,-1.7066506459930615,1.4222772321346469,-24.859938030812376,-29.34169268117943,4.556708434804275
27.742389382743756,-16.76120878714154,-31.981950553872956,17.126132423813033,-4.468947813688063,13.309794922671081,-4.408214041522539,-0.47964044696032104,49.11515520973981,-16.42700568858416,-48.952088955220475,12.389301899554189,22.311972950636147,7.584588189623524,1.0057667945140416,-26.949335314264104,-33.06631341306961,-0.10900680919082717
30.45717730966535,-10.791691460188853,-32.73406353662759,12.605242476480033,-8.820155317336152,22.418214699099593,-9.083943758969365,-2.8690046970262557,59.87712084835378,-16.377874055845833,-50.423776124578275,6.461194121347841,19.549479919893507,7.507960191835501,4.017602595619351,-29.42993178157621,-36.98874030651888,0.7982146906828227
18.62516876440354,-3.4559334961845813,-38.475173524149746,9.847377371226814,-1.6517909756008446,2.438894666716344,-14.832531747590558,-7.309680492323809,48.46733613054515,-11.740090238488603,-50.824474368342734,0.6386675915321725,-7.145072841254538,12.12619454446441,9.481176836162815,-35.81740708817259,-35.93307938357897,-1.9991678739523557
13.34046971384545,-1.3946926973720082,-29.08781178650268,6.020432391126969,-1.7140845232809259,-7.174505331403367,3.541764705895223,-6.282002799147831,47.015222708743345,-9.447388071783273,-46.05258419046467,-2.6368528254463683,-17.927249031217464,25.443268572396125,15.54095762732814,-34.68580511645034,-21.20775811225485,-7.524635160126504
19.193025139124757,3.4975924160399536,-27.130938783731068,4.347081227048109,-4.905352619633941,4.613267070468396,0.1398510722564279,-3.106315633630919,49.466025382470065,-1.9801553289831322,-41.28398977677658,-6.295120278275981,0.3868266297666576,12.790689858077112,12.626447170487234,-29.062513768883512,-15.274023279316923,-9.137521404410585
10.205904479968037,12.295126527926168,-26.842767118662856,3.7530555669371353,-7.026252349084505,10.653282882159516,-2.3816361042625465,-1.3959362160328084,43.124262157586095,0.700485225616525,-36.128082510430644,-8.285345416649566,4.1442266586409,9.911191956759424,16.069866955004503,-30.275827357643713,-6.315255227333328,-6.251943184620163
9.426359876010542,10.837507327513247,-16.504384069199006,4.23832084901267,-10.029876639293345,4.597706937424739,14.727627527721205,-1.0531877153888907,40.392489796460126,2.793783612298009,-27.166862241952042,-8.02160718351341,8.286669614598136,9.285124858441455,27.14071943696205,-36.47024379956278,5.7662364048036,-7.364189310379018
5.721431599859184,11.234265042276004,-9.39725525881164,1.6035583409551144,-3.369125944882148,-13.553547509991581,29.690001491499352,1.339969698810311,34.04405884955946,4.495022939916296,-21.724678684139224,-7.65240338110134,25.216774732584398,-1.0994221902851748,24.15893368398243,-34.16898849087711,14.915703731521525,-12.083696585391756
4.071684262602762,17.294022404488327,-8.548780517917763,-0.6355905155799402,5.436419037521009,-5.323422143285498,26.88028018680583,3.342111192019132,29.8407988864939,8.538587965001994,-18.239025687077163,-7.959025530867525,27.10217419108001,5.125127223807578,30.07402155286145,-31.96593469472669,20.742547037999053,-5.175927608494696
0.6684831143881453,13.489169993652432,3.8147419958134456,-4.334661235349582,17.949349075148838,-15.34159991801274,37.841943669398255,7.590014068575737,29.83354496554071,6.1352504821457945,-12.70595213646753,-9.62510944275543,36.697211405312096,4.423239585698521,30.53023371956057,-23.61097781550612,26.762475319261334,-4.2193479127155875
-6.050681282553782,31.26547177175935,-7.170504844778776,-7.442880927841582,-3.721470502923145,3.1698767024734167,34.35193212527716,9.103151462394042,17.615818913597014,8.808592580696981,-6.004392518182723,-9.818614259565706,28.122677014723656,2.5566986963806464,30.117418011363686,-17.89330393529851,32.487229193383484,-4.819433700403245
-3.780921939352204,5.387529323379674,19.433907815515518,-2.635959887085047,-6.840789993036193,2.1632954370057575,36.527764137088354,18.81920762008258,14.281714473362536,10.015514743026646,-0.9664347720574398,-4.92623913191224,16.320298824555,11.049090291882077,29.030819532055794,-5.730731447411426,34.987104612598564,2.008250457574203
3.27848741437867,10.563486200286688,13.119093451606503,-7.6876487273327,-3.0298089684702987,-14.943430952033502,37.24044575659454,31.757654527003837,4.4989880714574895,21.670230630983284,2.3102511741584344,-9.206051537697327,5.098824032595672,12.224331067014196,31.86027729924384,1.8414279641746099,42.856009577786054,4.935327930923707
7.119618586271976,13.296710220553706,6.405084172733911,-9.023564536361711,-1.663597555553027,-17.19291086035595,38.44314978398252,29.363537584737905,-4.115035119649299,25.9013434339735,5.876466901857466,-9.864926773019942,-8.666697958865562,27.46942902730474,25.910205964907576,4.237241919391163,55.703338590873486,3.864060138805714
5.105716531732373,7.630052256640642,8.178741705445507,-8.401590616665253,-15.925876373593216,-15.425269209172022,29.198224192193447,31.168420062919765,-9.997809942673388,23.978373658219336,10.513464534181434,-11.9811083726092,-28.68716244464906,24.068999393666704,25.243236655906536,8.390425067342981,60.052347458784325,-0.03374290018620307
13.057336570437105,5.477729959271228,5.549254401582054,-7.970242200519685,-15.73798584031465,-15.207116569225626,27.96299357053521,31.801140633660367,-5.434353676882157,19.905258767203,14.658711532473355,-13.01553789205753,-28.008932582125322,27.023377061990175,21.070085027627197,8.73450228707516,58.24684427408333,-6.562850546567326
8.122566444112476,13.675758824634261,-1.8739960256226773,-8.217853865088351,-7.642917659390358,6.89928181902021,1.5338347803950327,29.99216212317299,-11.616374687030099,18.760171587895766,14.503548375761959,-9.940869898624909,-8.096772187070828,22.367453870877554,9.19137629304651,7.320303086249293,53.02126638386423,-5.859917819798429
7.196191688671769,1.2666092497064843,7.589023980919361,-6.898344350719379,-8.437725039151747,6.7525011712772205,0.20448928469981809,29.843122070660634,-14.48113709253473,14.195329566471276,14.83319765768102,-5.393909563071308,-22.07638790248438,35.78515942393318,6.599461101478095,8.054154864456486,52.969513760562144,-6.811887733834251
9.887575435667507,-7.237651631519164,7.863715572779764,-3.8164457893387222,3.9483205385686624,12.575498899938772,-1.8066842572943127,23.736728147809217,-15.688801062263135,9.33575115598628,15.940626852143467,-2.890383358308233,-2.856806574389137,34.85406322696153,3.919096150082705,2.537510526257549,63.16980588402452,-11.176690116302563
7.309855069282795,-13.204257478801328,6.372087242376242,-2.487885250008606,-11.110320486711867,5.520198545722952,4.582482791677668,27.102913598540642,-18.559708179258315,5.060327001501368,15.579703063515272,-4.090522302939268,-10.985719748274938,30.51176671458638,-1.974870547894163,8.544098030695299,59.89132699319217,-14.169188006663875
14.111681038268452,-12.433950415789932,-1.280436649531918,-4.865866735979498,-0.2924406335097913,11.563423371049392,-1.9174013811678865,24.804737859291485,-12.64445844647964,-0.1934955354103174,17.07078540882562,-8.70140418999765,2.072878400506532,30.8637921936635,-5.125425135653039,6.347073757022372,46.55211114566913,-3.582257954064209
17.20690333141355,-17.133972557244007,4.828347930682181,-3.626109679318006,8.276613269208003,11.661775556858341,-1.384165531977679,25.72906325900756,-8.978354427921884,-3.2030395995387666,20.609186099509344,-7.152623046543109,8.974931214684926,38.15619293516111,-6.606914971671905,3.7590773747913477,46.49236941995175,-1.3889872776502177
19.52523911044774,-15.585419329900608,8.096652537202932,-1.7960546752800717,1.2178140551710914,7.182322222251791,4.521997715475985,20.305438026760992,-3.850379611345085,-4.065991265623516,20.82372689563986,-2.666938376228442,-10.396943616946348,47.99429129644315,-7.786664496237687,3.416888836263194,44.57516129698461,-3.0972174034245814
9.933688800850046,-23.120579826121777,12.821447401501054,-3.965666837074828,-3.011441318619955,-14.668244456006022,8.769716717986984,16.248829156058925,-16.59674379903987,-6.591030490754372,22.01134652919571,-3.15468270027322,-26.647652609989404,33.9127558302885,-6.028034602314229,6.101791481290803,30.644089017671647,1.2540420414606306
4.155129266907565,-17.278197356292495,17.733213810944626,-4.861480167630457,-6.071249589174602,-16.38949862163036,19.269250747311432,16.098342151486477,-22.998304292466585,-3.746827825976508,26.808802813825118,-0.3150051414780872,-35.187166761410936,38.29495741334448,1.4032678206625953,8.395786215245893,26.281518386651065,11.274059361068336
1.896565950766135,-13.878849025418553,24.39450971888219,-3.116338887915445,-0.051248248524643714,-23.27494368922219,31.528322737968193,15.947670390004177,-25.39882327374854,3.0017230430881456,27.598791483152617,4.094196503797774,-28.202750163418184,38.679523063836825,10.796121358017169,2.87690693163222,33.14763425337838,12.607044440331746
-3.6780662717721597,-7.746697481237694,23.82085930663669,-1.5623706268699475,14.950991167821027,-31.711394225272812,33.82797950382421,14.136633980376697,-21.552148666502344,3.791163042409404,25.162574532904458,3.4321360179220344,-11.846722306210197,29.988153214814552,17.36516583739783,-4.302386319417122,37.179723360279354,15.409298395332016
-8.467167542820356,-12.163217946370155,25.09447080908336,-2.641072605179703,6.024897021954754,-36.71845854236557,40.6215388591115,14.571542918553675,-25.716285975319632,4.285614049156471,23.601777714759873,-0.34809307390590405,-36.51035756510127,36.635181575886655,22.086844199008837,2.2878520472896167,34.17850228832923,17.629903318444818
-7.587877933049455,0.21573454663062286,18.937899412415014,-6.743130023922419,13.307887821001781,-29.116464115376864,45.56121661122424,13.248428942554675,-23.242549095666032,9.36793629427485,28.775866680855042,-10.078627877411485,-34.12609017904786,52.85869600083234,24.472729787934995,-0.20426635049257058,36.54650156295588,17.999201756831944
-9.927080659238335,6.34291132453337,27.03120599887555,-9.766972532789936,13.85048240197796,-31.1715326187177,48.354005106024715,18.565855478650967,-17.25596007987775,15.717740118478115,34.53240561660594,-19.314121523846133,-21.002640574625925,50.43550005908811,23.643761561731107,-3.477810678440565,39.69380309011435,18.177267038788862
-3.9611929738539686,6.999552556223339,31.405411006105467,-15.033018499660507,13.512233343046246,-39.36814409845531,61.011768612606694,20.5627294981526,-11.565144597530173,22.651395135621495,35.20724797674621,-26.882746426042765,-12.960439246960377,49.77594796622973,18.72087512146749,0.18220351442396598,45.378240101166654,16.01551925109738
-1.0185449863598173,13.806907791198459,22.490102560456027,-14.435731137928038,-5.578137288103802,-25.385714274285803,46.03389384115792,20.70391226373126,-8.318546161358368,20.59841690656518,37.343465306659084,-28.780601824517987,-30.898118015225567,49.51271406326127,12.438339172192801,4.721019322075538,40.123036642113334,20.400701790887616
-4.321875980485125,16.60855073102244,20.012192857253577,-15.983101201981661,0.037153672153991124,-30.72894464179646,55.27659645701984,13.032275490407542,-9.762265442777183,20.49644673452668,33.03078419622564,-27.449199082183856,-20.420189961292223,50.62225476106515,5.284291194542124,2.1307249832683564,34.76819239842925,17.562961072365663
3.2188831607516395,24.388972327234622,7.955863224465183,-18.015003569673578,12.975117516824042,-2.174530253150401,29.46158062353294,0.9658326612308112,-1.8335599244456553,17.755545571495595,29.8865125217489,-28.259783026038207,2.6529176856706407,43.04569828244814,-3.3273695898553015,-1.143245830033404,30.876220164770952,11.896781963390325
5.099537455373223,10.194615325582472,19.329482564390297,-22.484649883574903,11.262851936369055,-13.942518453801846,37.339844660998764,-5.729650901666345,-1.0365591649462722,17.64920647638661,24.297318674752823,-28.770980524438624,13.41860879414579,33.71661623380325,-10.076437385004773,-8.128260401257556,30.790893165278888,5.452862418659232
-2.6839187752390323,21.877751569574205,7.062074895340405,-21.286504917537446,-4.415949533528618,-24.821509082771634,44.92644116744425,-8.323735764085502,-7.566549531692226,21.54461328183041,19.290598041345092,-28.29925901936103,-17.420310228006088,39.5296664771436,-11.83802481904754,-2.906084643249799,30.410572377117195,4.481182134731126
-2.064843315796846,16.175981494500977,10.900397257503771,-21.647299002858144,-3.103693830819509,5.813950313196685,20.580205485817462,-7.890668245357425,-6.8724980437749785,19.18767915374884,15.940591910265605,-24.891536586904973,-10.370309698798147,33.04288978430142,-10.663107604440498,3.390321241550902,28.27037646436976,-3.4209085742021976
6.663749582612876,8.12857653364228,6.918362170350267,-19.074834004313956,10.512136990663599,4.134439545616184,9.516611515829698,-9.118032265944617,1.7292297658087898,11.750273298813974,8.48550051155246,-19.32914929389845,-3.127147430206028,30.857964842522385,-21.884116884189844,9.198455257809826,20.46397939854615,-15.226137398070946
8.364867904920034,9.454445088003943,-4.395680748346633,-12.592590780895868,16.11882244180332,25.31641201622172,-9.65144845713749,-12.396472379812852,2.613426344194886,4.115259532216322,5.42155493644214,-11.319199349186052,5.090568965299521,24.4785284239778,-22.649310095829556,12.467526327393628,11.581277468175642,-19.60632499094482
2.452521711618539,20.44654009534871,-17.27986183421701,-11.380455518690654,13.423478701764216,36.546696193913185,-24.03321810092325,-11.768881216975576,-0.3135672536225844,-2.350176450356561,2.9401118727417,-6.037623714716695,15.259547851129444,5.310557056358164,-25.263733736084234,18.861704406137324,0.25504385781244565,-17.63582581144572
2.6964077170401293,0.8698524721469857,-9.56580898432604,-4.500820295094791,13.656835180451209,43.87990012283396,-29.136509377931006,-20.126096426942368,-0.7039658925933711,-11.845339570971493,-0.03305435843286286,2.081990731750688,12.340628613894282,0.014469154276369522,-18.594579201997554,14.51361093199639,-11.463928174942687,-19.27584941126145
6.850352165787301,-1.4233451176889287,-13.187536022114733,-1.4265452467343867,10.471227914234337,33.253136451067164,-21.445714196737278,-17.643613875606487,5.055599411614515,-17.534209500252334,-5.841719091667246,9.133254959541325,8.63881819640467,-4.3983614617744,-14.849240246542015,15.24381980462286,-22.013134779078918,-13.491191889688032
6.515742647402016,-4.79272767423611,-12.617392939705727,6.338533292684902,12.265311511919043,50.56536942406655,-26.351917997860852,-10.962178162679917,2.609474027739115,-19.026176097318427,-6.1849629630612455,18.045820358772886,8.255873600517429,4.181476354390092,-2.6019399055644943,15.681174725851044,-24.06826601536475,-5.555492567522494
1.00892725771973,-6.796871388742719,-11.956933362595706,11.17705147037717,11.03124001327282,46.20629267146782,-20.02670755382909,-7.3084814816017545,-3.9406832222015034,-17.590810100217755,-7.996472989943641,22.960140289108786,16.660760336521243,-11.551424442852749,10.4321793837757,14.360828371610907,-28.46935206662588,9.023382685713004
4.587887431836631,3.4042133678595454,-24.975825047527525,14.651472596900053,1.4955839216685116,48.30116031035227,-8.524940398078172,-8.635699211173971,-1.2157276385207163,-16.548494046951006,-10.299658101719194,25.731628136247156,-1.5961491388984337,2.6028301377669933,22.29977957839034,9.329644045251305,-29.942896329230578,18.428724888022487
-7.8454655094240024,2.372649612814207,-21.10711958072791,20.961018544484837,4.850161025567056,45.9121298458044,-5.323464514240609,-10.939885737251588,-7.672937244712167,-20.879791279146456,-9.481167052488912,32.41497864348227,0.16567707252370312,-1.1105478827982296,30.9498626805971,4.4939487492947405,-24.3872953030547,10.843824600802197
-7.970437163327571,-8.231400236037215,-12.167325619758724,22.58598193655969,-2.440456193157167,13.648012802577913,15.749912485808759,-4.8459208984130555,-11.1050591012634,-17.986871102849996,-11.107474924717089,34.4162240462543,-9.694736815616038,-7.261789671820587,34.13611305975243,4.9319616242354245,-16.490142213459713,4.6282136855962595
-5.650510231268154,-12.68505898825747,-8.99637227439597,24.213872475023784,-7.387700793007522,10.591565611919037,18.171111769345757,5.544546160512504,-7.898720845020374,-19.6863370203666,-10.979281491169958,35.44627033764678,-14.575443131835655,3.3875246175265374,28.830951077528926,9.276490185281746,-19.825884648308104,8.96159608422933
-18.268814051804497,-1.7108601027917851,-19.797427530686686,23.69615761059313,-4.1320212438686506,9.496102242549114,17.76060123922409,15.05562997789159,-15.5346214319478,-19.53279426580554,-14.663059193769048,33.64953081682023,-7.835583947452946,2.1258637788623247,29.292215085617446,14.597817298498367,-26.97255597756017,9.683475557069603
-22.778174130709488,-4.410828707286827,-15.077769550901252,23.669533621511146,-14.939295586159442,6.06450555508008,12.07684948823271,14.995765263176612,-15.75072638326868,-20.94427894547604,-16.006350266526002,34.104116827872005,-19.06532325346729,4.578310189799616,25.07033324460751,7.614504539116681,-33.242606113873414,12.750850105199287
-22.88963729715287,4.703687018797677,-17.884538574779977,23.255017709003294,-8.558960705120132,-9.859805896806819,13.717615264311931,19.329981246503,-9.718890973295032,-16.694132593371283,-21.454543986303097,35.05209640882525,-6.662332889656538,-5.4664772903522945,21.24331254630288,5.5143275423182025,-37.464163345564394,11.815842306626188
-22.021277629327162,11.081665653314156,-17.67061013333944,20.499391513160436,4.559691001811094,-9.858605959336447,7.936488331532363,15.460400643482664,-1.4430444179304862,-14.204356856023947,-24.85517967634314,32.39175035409324,28.88522881001429,-29.76649428857141,15.271854491976299,3.7073850037927216,-41.102114593102556,9.905717691604336
-18.415309395917195,14.820747012705969,-21.46725090153449,15.89087977542126,13.38142018977373,-21.56921092896353,12.995372960222975,17.4497080289188,3.4127029922995575,-12.010098112018397,-26.69652147678762,26.122983087169608,30.154740430269413,-23.887625167301984,12.917566831534572,3.0726081551704265,-36.05088781649901,6.5320631111973135
-10.313947236538414,-5.270816214702173,-7.399034415865766,13.726358722793613,-1.5275786792642956,-44.11287644912439,25.08552257571175,22.66111321683566,4.360101685465606,-14.017677528944171,-22.876918196395238,23.277054895548584,19.119322622870047,-43.885568509573744,16.81700806834418,10.055418482237155,-36.08024427261718,5.894036978186298
-10.315093919625312,7.350790038064851,-19.11887581617539,11.271346939011735,-4.326830800420442,-46.72758900848619,26.82376324028749,23.379622342529366,5.110185389652292,-8.996465634172337,-29.119238320055818,22.19368580583916,15.21299404782128,-47.962966698040674,17.887806431897804,14.011131991949362,-30.35019414986889,4.085205380170366
-8.555372271262174,4.149651684217752,-23.61836223463518,10.185960991016163,-2.926529560402235,-44.062183453728366,22.116306976181246,21.167725672651766,3.3192084014309318,-9.251347412675853,-32.23965765777254,20.33367483834128,13.552995244791921,-44.811512993601056,6.754615582384588,20.799221800843245,-21.98580387185236,-8.855645304631672
-7.378622888564289,-8.624152900888642,-15.819192519173008,12.911579077132204,-15.100300742715527,-43.53882092822396,20.04522474055068,19.052778408296703,1.7216279454875938,-15.368278122360124,-28.7224666835476,23.45872762891345,1.4439466434497445,-48.59173314747551,5.683195747691688,21.923472233957092,-21.924758424758462,-12.029882561039916
-3.7575108810595363,-15.44305977530572,-18.18254631141104,15.73714151323722,-4.812355991081503,-35.00126830004555,16.606449122422674,14.00735471319555,-2.4169317757402453,-26.56600375674744,-20.03249899885818,27.36945907679363,21.367090883425945,-60.1826991202536,2.563781504005055,27.052006277027864,-26.16310786763907,-8.367362140799719
1.8196198084633093,-4.1975256395555185,-30.90363661845013,13.87735325864832,-13.371837851198435,-18.64501173379916,12.776456376146614,10.426015876234917,3.599076792925543,-32.199837663725866,-17.98630703663424,27.182878716527174,11.700518580994306,-51.36147501550701,3.5486038272442517,27.297975274365584,-25.521041314582536,-9.001189567562585
9.450371520261982,-17.075710441167995,-18.337283980506662,10.652511530651672,-18.512700787508216,-29.33403388593847,25.742906649467276,8.40638152205301,8.050766568408912,-26.996268021910733,-19.361149627247862,22.996539709975064,5.940958148019149,-48.10516926539371,3.070963988397697,25.39580062676292,-24.68614623539916,-3.0914783629732883
3.9977390050763426,-14.526245355448259,-20.62071350119652,6.550838953363592,-0.019712595887278403,-41.286859437363255,24.255220127678502,6.092915404806188,2.4419562747012336,-17.400710969456355,-29.625822859368647,19.98619665590509,11.60817795807803,-48.46077503250788,-4.5334952510936795,30.427655824469557,-21.99825622584116,-3.0408836618452906
13.587095797598085,-13.44393507861324,-25.44894210168471,5.966867674479591,-8.381845763099749,-31.651743838506476,12.805549153465323,3.778550526896746,8.452706707871114,-10.053897293140048,-32.66676064869711,14.929037525731701,-2.7434931511976597,-79.08900162037882,28.880283036849136,29.502721813194658,-19.21522500584257,-3.0877203257223047
21.7142281229884,-4.453651929597676,-34.579699616675555,5.287195117783653,-15.278277358370138,-38.12473991267234,10.339391001144422,2.4398230716448825,13.192239011722117,0.4153450583374738,-34.14807137645414,8.508559000879082,-16.70346760624718,-67.43029251346034,17.470935780339158,26.03902114082645,-14.676884599331041,-0.8883234471097863
19.98051460534122,1.6045798416511725,-36.09863066158705,4.902386071440179,-4.107114188263418,-43.22527572028121,18.321506979995366,1.1977711957897412,12.558971288556442,8.928810707957972,-40.41746604219108,9.31853390250771,-1.9508822164064563,-61.92302928469233,16.805507221346225,19.255292546704286,-10.629375838876541,0.8227701338673624
23.718164726317383,0.043173887243265874,-34.69319414811392,3.0545351118496744,19.272255740081054,-20.878896541749448,3.6458180423053577,-0.8265678708358433,10.849887629581387,17.927940999501608,-42.39273117061363,5.7375821188123854,18.369495765062954,-45.18427461823179,13.60233452208313,14.425053700598284,-1.213246326854338,-8.794568049656538
21.110536253094132,-2.692473497269619,-29.679671832317467,2.1850197664371906,11.011582487593946,-14.54345693308677,-10.835869972641177,-0.7035059222974365,6.893139008455437,23.311109381086816,-40.17147936406758,0.8906416644547122,6.659552096269416,-47.87869723380799,14.794906900772052,11.352987896046951,-8.499156548047063,-5.3260214049005
20.165508289936472,1.6008735675874055,-34.24174320864731,1.2195390974015359,-15.607606970823596,-33.49660065012222,21.2637640727708,-1.1675045321912414,4.302105991559863,20.000112558451224,-35.999792058436746,0.4417512546887181,-15.595896186055242,-41.88100411017482,17.648597281963923,10.820354933612371,-9.43989024935997,-9.475148349636171
14.144641318502966,-5.241138621141969,-27.480535195762922,0.7439739845218352,-13.90483964843577,-13.284375849968054,-0.2522265686441436,3.3478818240685886,1.3189937613795448,11.119998036669692,-28.510412909519907,-1.76163740242467,-20.271307277680748,-29.437457178575006,18.842832265693588,6.772371947296137,-12.043391753373733,-5.6168269733754
9.981579632213489,-10.523017634064178,-21.31017423270594,2.125467519864372,15.241036830399686,-23.243932848939757,5.671977256988892,-3.2709204155828466,-2.251468334246856,8.48735279349217,-23.07446831068996,-2.8875608632630456,8.844614710301528,-26.466399715610404,12.713252944667822,-0.6933071167785076,-13.868226406263854,-6.44667894771109
8.457530145994376,-13.85414605795335,-11.921889537525013,0.38341003396030704,8.743193161092858,-17.476286736147525,3.8794842825176588,-3.250249723090713,0.03617570541910098,5.754424717524444,-19.30127672558653,-3.4244191128963024,0.36417108621370886,-12.9481243178685,6.8769534697223165,-2.3968592539794216,-12.179985561260207,-5.031119058091274
7.130994661600349,-7.421917996024918,-18.847109276215672,-0.6736111260742286,15.137595757230692,-17.466291405437694,6.9680386550302895,-1.3753832428659631,-1.095513957086507,4.581396944700694,-15.530604811362277,-7.766921912982152,-3.5243867953504724,4.378857956869741,3.7751683101603106,-1.365679708004798,-10.299039699171873,-7.425040351617533
2.7792134347236015,-14.664204173121844,-15.034518741412544,-1.6316064584703929,42.62756304671034,-11.006878488252003,-5.765904236173242,1.2793953429721823,-7.697304064123978,4.284667384866509,-17.133575412623777,-8.004903846415864,24.62087186412873,2.36953806737748,-6.455742627142396,6.599508360612834,-13.889544317279903,-7.866748084573344
-3.133001311732425,-10.678293735050705,-15.523288520499165,-2.685954983111868,23.63400575629921,-9.035862094942038,-7.9548574812444635,2.7608820651151014,-11.077609617599466,-0.3116215785280865,-14.442018376593264,-6.1892889776894435,4.916019595923258,4.559309139015362,-11.999400278587768,11.928239788598487,-11.916180619104908,-8.211849954246073
-7.382997525094359,-6.011235302666836,-12.891308389413869,-6.082847688255212,15.872713816976708,-9.89320590784155,8.213696121319233,1.4088455855869766,-13.677827670500132,-0.12529699798757132,-10.776242063335639,-7.789022173623202,-2.774646842929661,23.057611100729435,-14.906823683263916,10.225909041229464,-0.37498638760477654,-17.054336383413066
-4.501994555064702,-7.108452232980556,1.1624519877064436,-9.283245664483765,24.519611536052103,13.081509829768333,-17.124539080988768,2.3014380838826503,-7.978265458796794,1.8162547849805,-1.6439347899649803,-11.925295001057787,18.44376167407433,7.0823016522522515,-12.053170505757404,9.305127547871743,8.429158679814968,-14.667451758091673
-12.849699704047769,-9.575358569086356,18.532522922160346,-10.822344457531603,31.019790908664966,22.680544798939252,-34.8478195400434,0.6533794706718252,-9.994745273039857,5.806011066610141,2.1149506598354577,-12.64109626192787,8.804806240296738,7.415290680147045,-5.880088303397951,9.165887020916273,9.418048321353567,-14.332755184698229
-8.792991307919321,4.947688622942495,10.995940442045118,-18.903455146346737,23.16609555628378,0.7394199942955737,-10.67837686127584,-1.386911270621848,-9.473156993820492,13.406500223103084,1.8676796564446363,-17.55384027502274,-7.960586309369589,10.970328487218882,-2.6378750582297332,11.468360298794636,8.548801552516409,-14.97611647552894
-12.937703214619885,4.233622999494033,24.061334432644394,-23.858521571807653,25.080046930335136,2.1416480335284422,-16.590062434761194,6.434576835858706,-12.175259580421216,16.902765761530425,6.598821838401268,-19.827595373816994,-14.27392889747956,16.282438946913246,3.2397593885350933,11.817939926728112,11.778538007673358,-10.542859158065585
-2.5296318175783172,8.30226928204856,25.59943129029935,-23.92976368414441,29.242057162143084,-1.6289665302929315,-13.910506451978847,8.101922267829023,-1.010900506225119,20.591753657591703,5.07779507349175,-17.21634315425089,-3.98269222225019,12.511505402820674,5.209547144408746,8.066146122460356,19.59554447130557,-13.630933547693218
-6.9638058516073755,3.090900950922851,30.06369925167524,-22.242287553243617,6.550176289451802,7.884755892969782,-18.85098731038096,-0.2912370817780223,-4.007802908062568,14.317064768060687,2.3828601719607114,-8.743615234229773,-25.134394989719,16.64986969344152,3.8572372144013025,-0.08000412811834678,16.862869884888436,-12.716826528975272
-9.443142015086753,5.884926115629048,30.325245654103433,-23.19074894273451,0.8527847083157702,1.6783352333418016,-13.051941519000977,-2.631426913986539,-2.708605350358769,8.528083534056206,1.7367811228610321,-3.9799784946655237,-28.31413353139457,21.56841443308169,0.9404734942428723,-7.347002887513266,12.076736866892087,-11.706946276816
-12.506788546800971,10.531895275468841,29.606897843786236,-20.232135756822295,3.067766135818273,10.90446141141495,-26.006096251911586,-3.996902822022232,-2.67975022097501,10.842120344651274,2.7489856746296617,-3.5114869826925315,-0.045054890235429745,-2.4209131079314012,1.439607455661732,-15.004410984444938,10.413005421934372,-10.699047416787105
-9.02577635003585,14.492695317797025,29.568958767814202,-15.222000556927524,9.288862997073768,14.566593197182957,-33.78739270418824,-3.7041139723419665,2.4265646235109015,12.567643397773747,12.353232134467046,-7.533562977122299,9.086213959396414,1.3232792927812174,-6.852769399632356,-17.19277433506417,24.274208866597295,-8.618989979241828
-19.019986972253626,15.521186334735638,38.2194838208452,-11.578418725796755,8.480801173570285,13.055236554515954,-23.11446350726124,-7.124289621101228,-0.47574874369014175,14.485922099586537,19.416596836889717,-10.28450573527409,7.283003143309937,20.105391072127954,-7.823318491950111,-28.267791124005285,39.109344774943345,-12.791197905823683
-22.86025829986155,22.797183982690665,31.632446612792094,-10.668652060358184,-2.774391228896949,-16.969931281132666,-1.5070375927093265,-7.226126188322837,-5.917807422798143,16.79227983544755,24.818058012612546,-14.791810190017191,10.951890431119477,10.565294022189658,-8.3082675935283,-41.686403151079666,34.019658145835486,-2.805295173342026
-16.83563864994389,15.226604429723317,39.30060375930678,-13.859961296118765,-12.074133700426962,-5.19545813204275,-14.278386871011026,-2.9354423654507977,-1.2040555609968364,14.213206971002325,30.413171061608658,-19.590714228664684,4.858343195719853,14.305096662042875,-12.702398250409363,-40.94446267651763,37.130580065016154,-12.939238448397703
-11.395547404091621,17.028555213266188,37.981531267360005,-14.41401366006561,-8.871344283310236,8.534179476677046,-22.267835476620903,4.966446007851835,2.4349165255535823,12.315203466487898,36.592624962431344,-22.142219538021486,31.581208318242354,6.421989332132281,-15.341741911184673,-40.30001001482053,46.00066950211926,-17.31381466356124
-9.27444117752019,2.5190385988032302,43.49590019005263,-16.823115405352937,-15.431943187617804,-16.016123742437923,-16.881577553782705,1.3425352423068784,-3.2040913880873907,7.875573123129686,41.69629574957896,-26.45039527865573,16.998330499942984,11.330324051368656,-30.386848271232243,-44.92891552183474,38.55928022424196,-11.436854014909557
-11.155962710899857,-1.836709977465046,44.51552874493806,-16.888032813093055,-8.611002933110527,-4.724257152468168,-27.02637671184985,-0.42811824409225707,-13.140484479700602,9.878837730300777,45.33360960308941,-27.437139610226208,26.149831369162392,9.10784177890725,-37.23210839985729,-38.81531978995234,38.04895801474752,-10.152417403177374
-7.957979366068909,-7.855289277114195,45.14215695571533,-19.687016371252863,-3.838404864022854,-12.376324855365159,-22.23308771685949,-8.158187620781492,-11.65131640237144,7.973287020573289,44.67254865598975,-31.352647332928477,24.660250269401804,11.668709779662478,-48.280226265802106,-34.65473884050569,34.410959896699566,-12.191036750202827
-6.8095419720515515,-0.5950773257508044,34.92652037991007,-20.630199184610888,7.089141321760112,-22.76125160646953,-16.076203212390162,-9.835824750290406,-5.572578691903143,4.209744236951038,40.98271952513783,-32.72818317270459,26.397047301430284,17.255014779004746,-57.67190503973577,-27.564295288299025,28.621868199739765,-13.84179860797921
-3.6090598172096566,-2.2243934625761304,34.66983019364005,-20.01060025620133,15.187162195429822,-14.492099648995339,-18.71219193063576,-8.488473382315723,-4.084048579878218,5.424262426036039,39.44003778183545,-31.95447497035531,31.94622699319696,18.64001319622735,-56.03216573891835,-21.059677217227954,21.16997727560797,-4.850719065038856
-2.3605331696824514,-4.735315384078393,30.11416760596406,-16.949344603589584,3.2679326904339767,-11.592778089742822,-9.632989116789743,-11.92880640489666,-4.353601216962368,3.1206299950135645,36.62653717433513,-29.324591503786777,21.19035001223144,12.112643301950378,-46.68153198409407,-16.508102251283184,18.207731186007287,-2.698610529872667
-0.8178654512902996,-5.686412034921742,30.732443399366556,-12.716026432716685,15.570444822843186,3.417345837389398,-19.503182692604945,-18.10606479117756,0.06422464988137877,7.357606566717793,32.15164067368808,-28.061332409862487,21.278320271047672,13.10276370821773,-39.971880976527885,-13.030659826482854,17.586666928013926,-3.869869398456361
-2.7897384702905015,-6.44490428624532,24.610521969992604,-11.314655591909629,13.226952289029596,-4.032668271679638,-20.295055530991064,-23.895254181813076,1.4545179457830963,0.2638387015135697,26.50369016850602,-24.16082319426746,13.362243068993765,3.055342804166992,-37.85652047239862,-13.557091096406962,8.759756764277133,-6.313756284567896
1.1966201502484797,-8.768644032531808,20.244734098318652,-9.717883574763556,25.925440906789667,5.6084662761984525,-36.618409148686105,-20.50723107131741,4.016611858089049,0.7849416383259515,20.464000009722337,-22.310726864876283,15.997135150423217,-4.845882056417825,-34.67145063059406,-2.0715355006126117,-5.343257911442155,-2.9989851700996955
-2.7262155558940644,-11.974039730539005,20.46726032953744,-8.99998591576733,33.548447575418805,3.336304935724609,-30.972718981635786,-25.422783810134,0.23091069564287592,3.9403849580701302,14.227937341785596,-21.632213868170986,29.964301510228513,-22.515209239881365,-28.463661804719912,1.5038192535652248,-11.929202882009026,3.5352733138525103
-4.9878123481532795,4.251705860663805,2.133321027592263,-8.282082324041772,33.849874204260814,-21.689254826455723,-0.13532384574108036,-30.829345792494397,-1.4063119386892913,5.628558609337734,7.502579840952038,-18.60969429554752,18.642129613963473,-19.48347432029152,-17.963744542902308,0.0010389886234678514,-11.193382220618268,7.3318295145806225
-5.783509403312459,-4.13506084579897,2.6459341455997105,-1.0211425826074567,36.88849654243384,6.802391013324012,-32.38886160759988,-25.59398697389636,2.71833043568333,0.18532943588867878,-0.5909420222778987,-10.606496535419929,23.925826934984823,-34.91147794378989,-9.42193134876202,6.1156213316568415,-14.952369850446914,1.7498914802155738
-6.968825861483181,-6.665137794541728,-2.7022063779589196,2.0404444926128047,22.253874022164155,-19.88191098465538,-12.497236179581606,-18.505956015894732,5.378215002277122,-8.873607376509348,-5.072034128390438,-5.728299038753553,12.904768933469471,-49.26771521477764,-3.4243017196829904,11.15601884285639,-20.178761890419032,0.07084812794657935
-11.37585662358233,1.1537181009424295,-9.125770356651596,4.906609790709073,32.13417614233524,-29.18254619770637,-13.410813175721056,-8.002780840428734,4.327263523967459,-14.126246235631054,-3.889835314146687,-0.7524810627758214,22.10298124327774,-51.614558585781054,2.079827947796698,8.969785323023181,-22.184971500057983,4.443107879490583
-13.14515605737208,4.379859538685768,-8.226092480129036,6.014793928785945,24.53659907791928,-24.90825042422071,-15.598074715532208,-0.3346082980558833,4.6437280807722034,-17.428066030010417,-0.5599763487587737,2.3677192279654555,23.785693428085022,-56.11241588274841,1.523841679924395,14.498546414691717,-19.89674677650622,7.5422802437567515
-12.179083519575727,8.286791315278531,-5.569565526946139,7.122801576768033,8.445678076686557,-16.629563763964004,-26.481035580438153,5.0844568467753355,9.257390251660878,-15.946973259159051,0.7183070802431981,3.6322197727791625,2.718322740971942,-47.13608029843104,-0.11183637296506532,14.949129509331037,-9.993706279709764,2.7275807922400706
-22.24739577123725,12.190895959415133,-6.0389793328175365,10.965015667119264,-1.3922461749197659,-26.31955695286092,-17.25068531416129,13.625539364716705,8.402525155915129,-20.229983932015795,-3.2776440439755135,9.974639342556983,-7.407188789358091,-41.3850530829322,4.887638887721302,12.567653907195906,-4.194758974645442,-8.047891887995716
-23.42792751673668,21.07270480013212,-10.90378857705857,13.732751378540321,-3.219313603979618,-26.731797345784585,-15.348868108334393,18.74551998938709,14.38405692027314,-21.585538336731464,-3.563271945319105,11.238493446657614,2.5890050745254314,-48.1368432804659,7.732958736988834,11.26042040009754,-9.628898404652583,-4.471382177986786
-27.53727728694004,25.947692192548967,-9.519204862953181,15.425976566875544,-0.6488409633709793,-31.733758560491317,-14.13487315234567,24.838946602747168,17.826891076197246,-17.083882496219427,-10.58790985383806,14.1620878833964,7.218249823463653,-46.102083300307186,2.369235469635125,14.836071933610434,-15.065461275786213,-2.265838681614486
-23.149499735435864,17.53835913398224,-9.20946519409808,20.829889145035068,-16.435063133738367,-17.594681946535914,-26.401876211785655,32.98000417044619,18.438102685413426,-19.322842166172123,-11.948980520343817,18.84300335059269,-3.773504567747114,-36.74565502657974,1.0035831191728306,12.06395935340867,-22.555235207900484,-0.45473454854215944
-19.151457739865005,11.176957000005324,-8.216637951694963,21.25291965851923,3.4267677500823748,-18.787819687976594,-22.559590106780494,33.793499711456775,16.608370672736676,-20.099143491775674,-12.822300629865136,21.3748544158775,33.9702023840016,-45.16560948331054,-1.5399576550949448,8.608222421060038,-26.23872907308047,-4.311636405542474
-13.101714601534427,15.26203748456018,-13.181358377198947,22.456844950209156,-4.540862780902913,-7.187810283541793,-39.62030269732858,34.310740841481866,18.880811262123107,-13.357981932901218,-16.91882147244453,22.831801599269397,30.213625585252995,-48.99833202675484,-9.851395344118112,11.597866865208506,-29.533935212082415,-6.805233729485177
-7.344061177756468,14.461321304973456,-15.607313198753072,20.7306418155776,-13.677375939605248,5.193378790800988,-44.77101390471585,32.96915430913645,16.466275138189125,-8.865105880146551,-17.988405551440028,22.627825037451757,29.488698421041864,-45.11877888311797,-17.48540935581544,12.829633073393877,-28.827486787719796,-3.736288568870023
-4.808233069283897,18.638226023831884,-21.549193635634616,21.93374632353039,-13.533378640229575,2.828103594245384,-29.124866246499977,25.276434942822426,15.32193140489886,-5.350938116924409,-16.031011449965973,20.274563804450057,22.420278834759618,-30.304244633567276,-16.141177550593323,9.471436999631289,-26.365479445252674,4.016236432178088
-3.248103968454643,16.75741271899438,-21.72942692085782,24.2106338102914,-7.722193162862872,14.037047647269453,-28.91287445576972,18.849837658045516,11.248543849851826,2.360409147173833,-16.222458696156522,18.604021339120912,22.973421811926023,-23.89095796853894,-16.17050163497987,13.339855478173309,-18.339226983464606,5.026344584536719
0.9496624571007573,17.90103686088357,-18.687028068424404,20.13928916568344,-6.693184332865465,19.48391938034534,-20.99014354949029,16.22841522545872,10.691569597104124,10.069681612306688,-15.43765963440103,14.979368840252178,22.847214775228213,-14.257640142474006,-16.4992231662736,15.93865525687199,-16.174648678831574,9.352743917681295
-3.347914577941598,20.994848892075133,-20.332189036944225,16.946359049903236,-0.3875922339014668,40.55570691992816,-30.4546984856402,1.982196610561127,5.252488937319761,11.819786613231724,-13.871890515868817,11.060719292430296,22.236965773643696,-7.459059620882442,-15.467232678799174,12.384939336896064,-15.672423380840419,12.698456547196486
-5.007849484162367,14.515221033362392,-12.11382280721621,14.241187154602065,1.4288211609402204,59.86927757897112,-34.161636936473734,-7.09173455267949,3.3299131417760623,10.540486788913357,-11.232139650565124,8.996475616483762,35.49835246105218,-23.124407057665067,-5.7502671710360005,13.421049018323794,-17.223141704434568,23.657328173258954
1.7316692226209085,13.013142126101325,-9.364112118018632,8.019781565643987,4.127243003929765,66.19393829000009,-29.278862902476742,-10.602794506100993,0.23631599090496724,17.853084598269458,-8.299631270270018,3.6107114774670306,18.39240574857454,-5.979382796313914,-0.9228154009969032,18.94931633401152,-14.77198138191642,34.61202152121996
9.253344208831212,25.66842534176881,-19.993252758176062,5.215818064533998,19.524270745061827,65.87739117928241,-32.79879805446715,-13.531574685966827,-0.7078943433195981,25.35904671771837,-7.125141032429808,2.6183235150144277,17.697167758583173,-5.145807835016761,1.065876945495635,25.45405231477772,-9.979079574260203,43.316376917788354
13.357900605697814,21.132921770001623,-16.754655395508333,-1.1044258432617875,13.927994423480898,35.48172958887999,-12.787332725270641,-17.92893376634192,0.10669589910205435,21.241819866203322,-5.560162598435433,0.8433879700863445,-3.306689736746957,-6.658599561452263,3.829092693013955,24.829654125869492,-14.85629184942638,44.203873429457
10.529669264630936,11.711492460231788,-10.878881673059329,-6.546373946984948,11.36222804119938,40.730565567909665,-25.10466216002958,-18.912030270695716,-3.7652796837065328,13.216399743059544,-3.7023185108130687,-0.9328954436930355,-10.04834712424762,-10.420071057374603,3.851104321781971,24.693415038166354,-17.97761409202849,37.567456453464075
14.147771601090383,6.77926642152908,-10.666762425034541,-10.328785545432545,17.58878778459403,26.154257627580115,-14.964758615721621,-18.922352592449247,-4.804130913639868,8.802467529494859,-0.672654798220902,-3.3941917654518186,5.284792024531416,-14.184061792767476,0.2529479993066772,18.50225597288142,-19.733626694214514,30.43845740535322
19.13401764743819,9.461277507804427,-21.489397714866328,-9.619606492681326,-4.013969737393872,18.510983474615944,-12.641482666014696,-10.342641214085251,-4.96296865286482,2.628883684087722,2.1616535692398022,-2.341277652736494,-15.511310508077408,-11.21215194122134,-0.12937391417562694,18.365726220551622,-19.831303821929204,21.74261725283187
13.867150335762236,0.8119105682377796,-17.07678127554467,-8.227508045348127,2.8048226542892287,8.718532215488594,-24.189572056719605,-9.677097723314173,-8.44103202111625,-3.448817571993012,3.9217193724947914,-2.6570981962457676,-28.39304125276322,2.8902957295107328,-8.233563023255057,11.392993636213017,-21.102665288100173,9.03847062819223
12.800530693257997,-5.789737240389954,-14.030656279916961,-5.957193164084735,-5.900809488511609,-13.672513336546299,-4.8817364627025945,-3.8396277076865726,-8.499893465500259,-9.528255809593057,7.732621756921334,-2.6815284729279245,-26.036099198611,-2.2482339516036376,-10.192250178034149,10.181896332769359,-20.031975771065287,7.16997424405603
9.977053528437374,-3.605294712895194,-12.253293903837479,-5.347780561675906,-7.6695775061668705,-29.52127299578554,5.14474138105205,4.825941067726661,-9.338792541447878,-12.093713184649387,10.762316707025096,-0.5591266308641663,-0.8232122112538676,-29.557428175168983,-7.275011172707401,10.43548350593034,-19.255935568586445,2.2697113417809303
9.69367783018225,-12.459295527506804,-2.4671393682140703,-4.836762873557025,-7.384360106561346,-34.92147188537291,-0.06720917232083679,12.803888745242284,-6.758403356663862,-13.684250693586906,13.303806849208788,-2.930672738017759,1.737079176386782,-23.665300353733254,-8.661693958324959,1.020762716638476,-12.622046377233286,-4.5880984097801365
2.5752804319218017,-9.206867211096888,1.0698450601343414,-4.619471047833361,-25.94390545189769,-51.943791812557556,3.9945591105192086,17.848046902206814,-5.153281348496478,-13.127934142771648,13.403965715631443,-5.303962991200534,-15.523186170005605,-17.580115898944523,-18.94222788979335,-3.999561292999852,-8.0405225097018,-16.430858183196644
2.586939524702278,-12.988938225865315,10.467285223044522,-8.113940430293292,-33.17196362801904,-49.43544398156466,2.0954961002913457,19.27477179657092,-1.69130937637292,-8.373908598251916,13.015975346673285,-10.999411280422441,-10.708875240004648,-13.7432648247514,-24.249224613035985,-12.535775034937519,-5.023010691374978,-20.07478398527732
1.8184009750141037,-4.469286821873142,5.314777710034292,-12.195136734652547,-23.795008420256828,-60.01414165345991,-3.518210056213473,27.82637614848717,1.772057984893721,-4.793306285898187,9.600760615330064,-16.110757185764225,-5.597703446777221,1.8103658357902361,-35.81333015659335,-19.90031621386485,-9.135935632249637,-15.91051534244777
-0.706888331039198,-1.3239741138700465,8.366638408994039,-13.738024617393789,-40.977752639368774,-54.87087727158911,-1.2252254499451851,27.291637296925554,5.139205296950813,-0.7259010415981104,3.060688756126981,-14.87624166474922,-21.869730260484758,19.510376213424095,-40.25543519465172,-27.167428822261407,-9.734535308790509,-19.563296828846024
-10.555393820335695,5.529160278023655,9.857153842805431,-16.16063625447662,-26.51617470693019,-57.834162938476204,-6.455407563539175,30.073051374468243,7.0429663159535565,-6.035078930233038,6.286605281632326,-18.62420862129589,-3.2741402639299437,14.454103672172671,-42.26310748706537,-29.64954975564514,-7.404685978235319,-28.68934636846074
-17.277710059614762,17.359658266708603,13.8880076811225,-22.68568726163628,-21.817147826099816,-59.72419232077486,-7.880390537230518,32.068957404366515,5.9208591367779695,2.033460303264941,5.899422430103411,-22.56947324352545,-1.5695803256924936,18.087403969409408,-45.74264803909266,-28.127948884347706,-5.954967524255503,-34.49946852504289
-30.24895138350782,24.40173792117641,27.97890249328582,-24.13335917002785,-27.36895189349154,-46.57592756849253,-16.926059502436363,28.298775770008934,5.288604164094846,4.534162993658837,10.49304277904089,-22.317480075826687,3.654371005067855,1.1130207297202723,-45.61584094467479,-21.723713984504045,-3.2368359227270886,-38.653843504583946
-45.66043572704788,26.85070764567173,36.11402342042565,-21.870868355677104,-15.534437435296393,-43.194451448340374,-27.830534949560708,35.65726172096134,-1.592141084673509,4.201494910575697,15.672888261835814,-22.848815104323897,-4.106492189000896,7.965293519415045,-42.07798347084269,-12.682979971781364,-9.406620688133291,-28.456961124517626
-55.601854462432456,34.86296623234737,42.6880211923389,-21.660028412012746,-3.5013574744444034,-51.82590657977758,-13.542547729148035,46.038790166727956,-8.86187078101846,14.219301147754459,18.509245696421317,-23.577571512874258,19.38673699233148,-7.64547664142497,-36.8868919661398,2.314609998622782,-4.34675021485006,-27.834961137617004
-59.97551670666926,30.860115225182714,50.53302055639056,-22.133636819591892,-12.16845892016305,-45.126138199302154,-14.199351708126569,37.56799586031609,-12.418918579393655,16.716266570099965,16.951320334939595,-21.96468607029161,5.773589567558458,-8.511618963755502,-33.753532864369824,2.565609293327969,-5.2449079963625795,-27.315033531034576
-56.04697114675468,29.78378464915663,39.140944194270176,-21.04557032598472,-5.109394972657203,-51.12292814606541,-9.195084282311981,34.4639681788524,-14.50937139782852,10.715866229578308,15.686700265674201,-20.06100772669432,18.140913328628773,-24.12569731528739,-32.189585108028474,7.210929872546823,-12.882275593351986,-32.85428858116043
-43.523208558120245,20.79396221742919,36.24663622039998,-21.618538070610725,-9.961296109606874,-19.522548686925106,-22.260494863938817,33.11334192236423,-18.551209186211906,12.038707635198959,16.375582396314748,-17.964229036161296,20.257632942937693,-27.43644225845978,-31.90203851499883,20.44985009246138,-19.15317867030937,-28.241526892032688
-27.091763091313027,10.14074132889549,30.61950022389218,-18.871997985848786,0.22938418675682726,-31.283272939491685,-7.691677721264494,25.312839559015927,-18.001322548608158,7.794023861223703,19.213296296998255,-14.209517133945596,4.701705068294261,-14.537467099612563,-23.71102401368434,20.114059130071272,-20.24888196211053,-19.433853416586178
-22.280176734458276,-1.5899323018810456,33.783191031126194,-17.395865527504437,16.96643302429342,-20.974419751147522,-21.934721507012654,21.121182517420873,-19.598054897652435,6.966382954705888,19.0239945992462,-13.875106188974865,-18.468179447408552,9.10247337083991,-16.112719035829866,20.656899396009653,-10.309836215521582,-15.708733614272878
-15.513983659762268,2.7897041934731686,27.37809277374432,-18.45969200614649,14.272902288374711,-14.377635557812859,-8.05507687958977,10.28428393833482,-15.431088779858198,8.090975967473238,17.370212781441673,-13.835978667705653,-14.876553698386346,5.982887062591697,-5.493736855434108,16.511877280597602,-9.844080623511575,-13.452808598063964
-14.215130984985024,5.408286392637942,24.392721965855287,-12.590676370437057,9.043592050122179,15.069983513587733,-19.569097012277837,5.985916368980645,-14.582553689518473,9.99596839132984,18.74421731559954,-11.162431014297491,-21.340444518250887,14.776320553412816,5.411560438792407,11.682958446525184,-0.5895302099197295,-11.689475831243133
-9.88735307630646,0.3086956795346847,23.55756287606647,-9.945222428108206,4.8918499908712185,0.6682009874671202,6.317234895084887,3.4408300604885778,-9.337447993386306,8.677452495348547,15.82168692258702,-11.128008373320608,-6.121146284556385,2.767513633301995,8.888270215936977,9.783478369300793,8.567049516865392,-15.301594570445936
5.184354808755664,-3.4268929804250856,14.716243258136277,-7.8865691611433935,13.634274239452315,6.871126766089731,5.052243852785669,-2.3315382077298263,1.2808456797102732,1.5963879155229044,11.825335084046877,-6.115432753914558,-9.746682145331022,17.80884285587144,8.452134075192852,6.711811864940962,8.250605560354956,-11.30065503354511
19.085792592722036,-19.275240902600178,10.759615404808303,-2.9966928070477383,15.25103992427279,6.822884980631699,22.925791161318195,-12.698413141923542,4.1862299096150375,-3.239228487043487,9.684900910822282,-3.0584280454695634,0.8888597989813203,21.032612577840887,7.9118708598978245,2.4679596876602163,15.84430687307908,-7.5969012593226495
22.83249326733997,-21.65001156459644,-2.765637730908974,-0.8420809191557748,9.742159198255637,-2.99219919749212,35.23056215427842,-23.36286827007809,-0.03530933617739207,-11.00519345333076,8.912101485649202,-0.29683564342067115,7.0351304653591455,1.1106108213034425,14.396566512790969,-3.9246539144038426,11.035435804423088,-1.748854290296542
27.36216959589958,-36.62581110601471,-3.8864981888510393,10.198541942654344,14.686037749022116,-2.944915147554841,36.10718700982067,-28.56310864793084,-3.1804826121266676,-13.595849721875895,6.8701825148622975,6.9545520628697375,4.9810718303280925,11.754681389672932,12.964661552732043,-10.415213809285378,9.15635088641721,-2.1550418123880775
33.553787811924074,-41.25305815950868,-16.138456940201394,16.06246624243989,5.863568810813092,8.136635791378012,20.282243232902516,-33.57266147958281,-0.756994871709241,-18.335461603532792,2.9732011865304457,8.343994243406424,-7.324193422254162,15.26902407066883,7.2295708874910005,-14.464615180299578,-3.757910414675351,1.2433238556183603
34.57135330864078,-48.12958673067767,-14.423452355471483,16.55438217636941,16.771370385004097,-25.705424884273732,38.44019420833255,-36.73135181934805,6.94221937015077,-26.102881166321954,-3.169470858212854,10.902829053285586,12.40507058674388,2.4738994347179393,-0.9531262177070907,-21.151055913939956,-16.8672437154049,-0.6358842233812396
33.53996153624419,-46.90365978181429,-13.292467253169772,11.576638266850232,26.120068621757824,-14.137680243450712,11.185394137189885,-35.79305557419135,10.63971319021821,-32.015152395494226,-4.819447940105945,11.115359913532314,23.250204358286155,-6.61076707402515,-7.872349835478257,-21.392360507372718,-18.940912802881453,-1.2495521477590508
32.11984234457709,-38.06354725563538,-17.433054614936996,4.156631263231981,8.421007236396278,-17.903236754658693,6.878358639072971,-37.69147341805126,12.288679445212438,-30.21274044371001,-5.6877235310581185,4.391656266831827,4.507699871153768,-11.887228515783558,-5.910706912547425,-27.00510873995476,-21.893065062105887,-0.695289961344125
34.607985015106266,-40.75014523162799,-10.829328398645984,0.3491483609068844,5.276397838520707,-35.83019315713181,16.046384943837488,-40.2781332939519,15.893123179498726,-29.19179682161453,-6.067271119014077,2.7436045069079213,-6.126622972965187,-9.058454728538173,-8.447215084273871,-31.153250882835344,-17.71566813120055,-4.441881064269994
29.676140808401833,-32.20917699473418,-22.19264940313151,8.84573620224748,9.26426693805149,-28.75778691273925,6.853148206942404,-41.50221790314451,11.687307705389369,-27.292066617947288,-6.251065078240639,5.9758746036204045,6.581774868567073,-15.409775813182788,-9.231682856905618,-36.0829058692515,-14.416558332713855,-11.21972246867405
18.984540785451582,-35.87847460437924,-25.74136126212874,16.75558128519129,15.306427292197844,-23.54188757670774,-7.0291691747299065,-41.46137717245107,11.780829739241254,-39.55276703918359,-11.903256343560738,13.795479847675484,19.780913211754388,-29.769208767019816,-13.439871053225003,-33.2978400230794,-18.538705253062258,-17.415423138501154
15.814687413126986,-45.01962607806628,-28.213836886728537,22.61382609460083,6.703421101728647,-28.678709446287158,0.18117523096942634,-49.33542773723482,11.876785255277543,-47.80948220669622,-15.992490452696487,17.12023794708488,13.450885819901185,-30.554302774269747,-16.09113232519875,-37.93499157113163,-22.171732372332663,-21.564060070818783
13.330588992381847,-38.53852927417463,-29.707724652900907,23.588405110647482,-11.85716378391993,-10.573980841693327,0.3588514800352165,-42.76073298582707,10.11971332342375,-52.55042318588202,-12.95227983628875,24.055729874736663,5.56064691097058,-20.011095586263664,-15.525179378761106,-34.85739807722213,-25.21788188810943,-21.028815168442794
8.89553693090614,-36.84561923998032,-18.30877268236271,22.12077110817012,-18.011687952050448,-4.775110264531804,-5.714779187274144,-30.42881444014859,8.072173504348443,-54.16614190341061,-8.153804583639772,30.10968909947004,5.3876114309810115,-20.40546175841429,-21.214704273343486,-22.697837243095716,-23.380112754739272,-23.62224635728369
8.466704031127719,-35.54626265453305,-5.931219467695035,15.476516936030414,-22.209512038224897,8.93306309504667,-6.027715389174578,-23.667949336296925,9.347537483596609,-49.53151027619946,-4.7221174989438826,27.37182913651054,20.158381445729823,-28.123974892839875,-18.803907543886073,-16.20261267751753,-17.53724381765856,-19.383200731278656
8.72377802942581,-34.347448915438974,19.1438678359059,0.7259202430099156,-45.05640097543524,38.36316659396719,-12.298786650217181,-23.552348895779023,10.918450197532966,-34.935452460270355,2.713951290149864,15.549168165522751,6.415191616132385,-14.162196452211957,-14.054481358758908,-20.7428837324863,-12.47440327747429,-8.604586021879829
1.1705866688841566,-13.912905739744232,26.64259203482627,-17.6387528085597,-46.21968913826998,29.51047747832127,2.0350115077891964,-20.316211861428684,8.585663281505635,-15.358430219448238,6.732407003066815,-3.698119909686459,2.2444894128927633,-2.7391566895773938,-15.169558653989068,-19.326186082771738,0.011760263609801314,-10.427251784308831
-1.2043392540508244,-12.524425194079562,47.13182626039487,-27.41027433724217,-49.820818652545725,30.324952951305065,12.754658478802163,-13.373561208513255,10.747776431885775,4.414411362276155,9.09108175759284,-18.260482076702665,3.7398939097095187,6.24289089960881,-20.29352249869311,-9.804030741431081,6.932868659140382,-8.639943678250502
0.9154476504858593,-5.181581429940671,50.24001201590562,-33.959809453529985,-52.441748164043695,38.951101857728005,14.4890772103623,-13.271398935107454,12.52193627385744,15.984591943474737,8.715732553133757,-25.208191987516884,4.944211570737646,15.32313566123878,-15.070562698468724,-17.469752564419704,8.679654131372686,-6.562953486520968
-2.919379037940981,-5.458753680033238,51.592384635081316,-32.59977581860437,-52.324617129356376,54.2170362027767,1.2812438350929778,-20.107345483206434,11.466732530577016,17.789674044857996,7.559505700529942,-26.20143617743567,0.2908798259350629,17.56796535960528,-10.535879079733878,-24.256648680347972,7.888976798725949,-5.172785386820822
-10.950928027966382,-1.1486755410593652,45.720105821841166,-27.334129774263573,-51.32490061869882,66.25932797339716,-11.536478617630872,-19.91630334907666,4.652465828129333,21.255700602626817,3.571579555161442,-23.193373507340958,-13.052247092939975,27.62612741669229,-13.037097640971023,-18.055137294636193,0.16633926664294307,0.608838108876693
-18.100944678582696,-5.2397753622140755,44.342097810088106,-20.018357217161277,-49.44257587931179,76.44518801068344,-14.686507538575356,-23.53823765761045,4.384043869325488,16.32401262634747,0.2676230753289994,-19.992659018848904,-16.823242933273903,33.485805161555085,-11.734079932241599,-16.150615360696904,-1.304362952057895,1.89513935981471
-17.63099259218783,3.8503606826885797,28.21977751111094,-14.656414201019206,-38.865000209387034,73.73929279197414,-8.071088500925146,-24.723005645836388,8.12239748440732,17.74101795521844,-8.114180652745713,-17.966503386266425,-0.3774849501311355,22.353918849379678,-5.650117193825597,-14.24611826943813,2.2074197037480907,-4.731824182808689
-13.83795984554399,-0.44111734020826177,20.498019403611515,-11.443604829953523,-25.35395608172412,70.64183271153054,-4.580947204848801,-26.204973287580795,9.812778502250872,16.42463660333177,-13.370592235122828,-18.091485482534836,1.2258275102552014,30.949861720658227,-5.039138840885265,-12.63459425248986,3.377456402516243,-10.189802753158993
-10.92107662993469,-2.293598054250875,18.73536845132764,-10.477575430122581,-21.604924857381235,73.98884770394089,-7.536351586625047,-28.17940196966095,14.045132087077906,17.94145031272589,-16.77117357708172,-20.172290485685274,2.53762745489474,28.02323850779574,-1.8930750663868103,-11.999621605866515,10.409096398131439,-14.576372649376614
-9.759209845902369,-4.44143865723168,14.240272711602312,-9.512186576437259,-17.363818354499674,71.67077452603976,-3.948727832202902,-28.595421730268743,10.663084320671965,23.463443168486855,-20.757379946471605,-22.841709910640844,-11.38378920063634,42.77379361754569,4.178841895672662,-13.806039703348238,8.653777063279271,-7.930361495086748
-6.543654763664022,-4.052503145563348,5.938482501356372,-6.8872453494230506,-15.267369537010133,77.06671847681798,-5.732226800494361,-32.53117433601806,11.971541215773382,16.486548885937676,-20.73930977986874,-19.26370107912299,1.1613632376606144,35.25958987304944,4.875842501394125,-17.76084780864181,3.775744939804105,-11.834045609264908
-0.7860697393727767,-7.181507893753064,-5.974702641792128,0.7176226329798006,-15.901498336125133,82.16873810347914,0.29703884174091577,-40.18191127470796,9.474309857524727,11.268889869651275,-19.842023424918178,-14.125833944184624,6.3834379013460465,34.680368463873975,4.78798034010736,-19.46941937077205,2.415823101653121,-11.052731982045266
0.4822409321152441,-3.8672979587066294,-12.905418856654684,3.6343121377965204,-16.238787874974,90.10187265672248,-5.68536084978816,-38.754401360283104,6.784756855732262,15.62317817473535,-24.315629339314395,-10.748469436593474,-5.678722852682801,36.93457946147901,8.70062578920663,-10.533159826156032,-3.9221160561662,2.030969886751407
6.245842362684155,-10.028017640042929,-14.463053708374055,6.941036458584829,-16.572184088978652,66.19761428719835,12.356370341568258,-40.84642265123902,8.395168256705732,14.412557381254889,-21.95292351008148,-12.158994655019914,-11.684986582438025,31.377602546315245,10.266168031880511,-8.823406107038132,-3.12841801393652,6.030102819807055
2.246757506646074,-11.698540902793109,-20.12042769785502,11.223752550044072,-12.995349809196401,45.31976448155057,35.37906190747546,-42.94222294350816,4.246826631184494,3.828469344126546,-19.980592622083133,-6.44316189718071,-5.482982346625848,25.529155199779318,11.63322070021158,-6.918139916872104,-10.242281142032203,8.659717266208308
-0.28432053826621706,-10.246005105196984,-24.31107045568048,15.603550915034216,-5.89888823186752,44.851387638801,23.24547009568351,-37.326764127871755,3.0313004933164045,-5.191324938003122,-18.008020038963465,0.930199299543844,-2.5026989456862827,20.170568912999826,3.7197582440483252,3.4835771635554558,-11.493871688701773,13.72855505563118
5.000414258156481,-15.436111494256668,-25.96076870257746,19.787468091820667,-3.1930484236050916,22.506667384877222,28.39788734733439,-30.44537740532255,-0.7202140930766117,-10.302945249798764,-14.570354396521292,8.984515892540738,-11.728713438059376,12.762810042525613,-0.8762257633475734,17.1082580623378,-7.27372952965001,17.721028415634258
9.507133597139514,-11.838862645681436,-30.733694209589586,20.650465696018557,-6.049695344242471,23.403463287701392,23.199257651924018,-20.344825392807543,-2.710747146394736,-10.529719421969421,-8.886348933588973,9.711857939839131,-13.92251502682266,15.122530731862188,-0.7873771715575764,19.795561669266164,-0.9021281422281042,21.809121932937245
6.204532907930807,-11.563742189173675,-28.76643898848817,22.294177605008976,-6.167893207838819,21.076509985859513,19.954539104057005,-7.220338143770743,-5.186397335855569,-13.098225174595383,-5.936563991369104,12.389715837094869,-3.4200177783334684,1.9564398191244141,2.619242020651008,26.487153677037753,6.742101010288744,15.738865357630225
-0.41507918348849604,-10.704362759536325,-26.89506948540378,29.601499062910435,9.831496124932436,1.7560470097918923,13.292637153158577,1.5061842728864008,-10.686236578073363,-15.859896927445524,-2.595967928822095,20.729089068817682,-18.796090966971406,2.0736320909174575,9.050805412765804,34.05801802423009,2.7682228450304827,22.557578517520675
2.246198216508061,-14.827136228664825,-22.775825397939016,29.290985052409393,25.444342090162976,-21.37415107170657,33.09689969542318,3.491046934366892,-12.960140170286078,-15.982564710038968,1.4283959645326991,21.448530558098916,-17.08138971967373,15.474166871019882,7.960424228811579,34.304936268261095,15.008778241143382,16.972000496836255
0.02804501643004534,-14.947469689790623,-19.14314969541791,32.30030947906141,18.795338108925243,-19.407414678388065,23.21420376269326,14.164266184007289,-15.426099644103775,-16.005234090816323,3.402093969776722,26.26697487541739,-24.936536696863318,15.204565051309094,12.336725288586859,34.161639734377,17.58454923287973,19.392693328904446
-0.5264181754203006,-8.330864168174182,-21.954191521889577,29.742624338625042,18.107597901477707,-19.3949603912086,16.457625797361757,19.56088104593507,-16.423903974136262,-15.244205088687702,6.352498531977837,24.24676100397642,-30.64266144812714,19.331563544152274,14.171921388980191,31.87032086873191,17.722289902087287,16.635956946541267
-2.7375027367119245,-7.575084517937098,-23.39635938274921,28.94226580466832,5.900412329830971,-41.06367525547567,34.89788892174796,17.239546246258712,-18.101993902962032,-13.3087508651866,3.345892078851409,23.298171856554923,-27.461436987370803,11.0580838213437,12.196609390063706,21.180916018495964,19.230731477955302,10.362068238147737
-6.312183914199311,-19.418429878537392,-10.96949095320107,29.41095013738769,4.635087422143169,-36.26831781215706,26.483489544400474,15.30595471724958,-17.725923044331317,-17.230132805157005,4.929291981439255,22.73760925948491,-44.69024111573953,27.00582897534433,10.12193078170817,17.71869523049297,23.574817393653987,-0.30779674600800977
-7.539416326562174,-7.043846050264175,-17.291300529147737,25.875163617453982,18.999219876491825,-30.595241222327672,19.437584481486642,9.072637613092915,-16.467554474786876,-18.316716157736472,5.536187928923376,23.24868341506412,-39.164407092356285,34.068873383557566,4.72532727840048,17.28440717931076,24.211554277373708,-6.974976282933989
-13.450506307831409,-8.440106614095459,-11.697287457282055,22.534192602205827,18.914250205043945,-19.356899949214437,10.63519394554523,3.520244454227875,-18.037852354590502,-22.720842757119918,9.951789489865511,19.753197844824413,-16.645794599095193,16.231393675395893,-0.477375667104722,14.604565246574278,24.559036061389957,-13.448025851596327
-13.107736331146166,-21.653968342649776,-3.660282929961861,16.751280924439108,21.177333420959712,-7.2408921915355755,-7.247946723241284,-4.0855347020640735,-21.069578183576663,-22.141509041910926,7.824355920739521,13.716024625410329,-11.607637511575078,19.685544665061883,-12.322073492033587,6.847126142831834,18.562553622773656,-24.609735801022985
-12.077547304247108,-11.333239866173306,-8.512583187298603,13.018686739755028,4.303789571265682,-15.536632596790332,9.343578357824109,-13.451617929204698,-20.289183673389765,-19.020063076097912,12.044688026708831,8.359875104794181,-19.94836093001733,20.895852417893405,-20.749873128008552,4.461499043391954,23.214622183009133,-27.569187548948783
-12.898990570589506,-11.07209341748705,-8.77348441537969,9.676229879893167,-5.338769523180763,6.733191317645367,-6.9740098173958565,-17.839510608746764,-22.239706904484493,-21.36434439133341,13.13996350475609,7.3957492674764325,-24.38259360712045,20.350644782559975,-21.17071559667354,1.78356578971899,20.643941343996346,-24.572412057212144
-14.790754720506136,-7.100696408988641,-7.958697557873069,5.747333678484633,0.45292733886859526,19.62653544220538,-24.657201605942813,-21.448383258367052,-28.87427198179885,-14.623254901156397,13.551603722505572,5.843108151542517,-19.929838120265494,17.464012178785836,-14.365718375663526,-9.194577765931582,21.39761064116422,-21.576434288616028
-14.334769806570494,-6.840945095327648,-6.458886498527057,4.845334595568154,4.686453391066083,8.69002536920745,-8.744468592376961,-31.11416370582574,-31.98959785057349,-8.367158765964858,16.014002634235773,1.5534871774199295,-15.672310194123996,15.654010092320034,-11.663035735534756,-14.800817700431343,20.006857728113737,-13.698269984538321
-13.581799812426379,-2.18715436871498,-14.039858797480429,3.649868902321912,14.490842612125483,17.57664164848563,-10.60372679879189,-35.70375400926933,-35.29664757677659,-10.11560811832287,16.230196265789466,3.0231153529828516,-10.145188190135098,18.24103400105264,-10.621081558535973,-11.714760799674757,20.57336624546312,-10.410622684121607
-9.016118057409564,-12.670778989614767,-11.853704777623388,4.797694402061836,14.045558921928576,25.77822918503027,-28.86771475212535,-29.845861405670348,-33.03358327181408,-21.52869128333523,17.81349695423041,8.005870178304047,-12.235369504802875,13.310869669393682,-13.583500081733742,-6.381788133539324,13.624391364956463,-12.00636841851262
-5.032275378963738,-13.681974675517484,-17.86948342008953,1.7457407325478007,1.104490937780759,21.86880239780548,-19.004452045980084,-29.653894574065042,-35.06380533013229,-23.172425405638876,22.03343063504651,1.3648073586710314,-10.126309217587501,-2.945106938987447,-4.729597084000594,-7.88404004373123,9.999995578998785,-8.621978380626471
-8.661582211000738,-17.8184957291146,-14.411179186188594,3.5761753860247527,-1.3827770027873683,5.067069120508304,-12.45968234186008,-23.213489492781488,-36.40673753506651,-21.003840847294654,17.366358652751593,2.729137989298022,-14.658056727478236,-5.428830988953475,-8.180695390765628,-3.721296609573828,12.532304025625633,-13.538808386427519
-5.255331337293633,-12.775372404745141,-18.76424814572884,2.281060788281593,5.60719181626248,11.799335982045223,-22.417154171085688,-16.48164741896744,-35.40216676132496,-19.515102745293447,14.65226422029209,5.751114186806206,-3.4670284110645717,-6.542812043749375,-6.846552942949489,-4.635880393835311,16.53379315772987,-16.7956723853884
1.1825553815260648,-19.841897349225672,-11.104205765769164,4.11048890950073,5.570252090716396,8.178336580093779,-28.466355773130623,-10.92311251701122,-30.38987985454131,-16.85062410476172,14.574724966272088,7.012720169027063,-15.909331057459369,-15.564514142222734,4.741799661768868,1.091165918725351,14.97315094185761,-11.068143676243693
1.7652683165778393,-9.720653703091195,-16.236155421506904,3.693280154395988,6.026061202364874,-5.6983019813471465,-14.786691534283705,-7.709654809670766,-26.350390012600425,-9.396979690112548,10.492987416266526,4.756121632784563,-10.38280354772882,-29.661843681976087,14.37727915287714,3.498780954031779,18.20214034062861,-12.37199589816277
8.114122455053103,-6.142377492204604,-14.042640706988292,2.7872694964952673,8.537152947216814,-12.545190324727692,-10.773101934243966,-4.595022622545542,-18.69375198174961,-1.6463378877151804,5.922702498348911,5.133761123431944,-16.77074923627051,-28.814946910317907,22.9389376028893,3.2705966095363417,16.06439611645023,-15.726589092377889
-1.1578842477905469,0.0728535871084226,-6.476855191625245,8.32615170373749,0.21271409538534392,-6.8935255483050675,-11.737978606627612,4.963976945616928,-16.892735235911722,2.104447094093283,5.844386694262626,9.708167298944684,-18.37372815009678,-32.65301466699133,28.5714083980645,9.000521305227586,10.708425499223885,-13.61218267602418
-2.0269055886105156,7.6555834367871824,-3.6952433447162494,8.102704073134557,3.5140318151371224,-22.728231614130586,4.877650740971061,15.108004326034347,-12.35342754226573,5.273481101884698,5.57043968938685,11.545645327546017,-17.14492743169288,-28.18755466855385,36.35302238831015,9.750914980079582,10.532828282258205,-1.9270576811007523
-3.3797547582867584,7.133105469426589,2.0171160549056992,11.394406358876566,11.312096434929707,-28.310573149048672,12.217939311685031,22.51682158764426,-12.986075046201503,8.837424948123559,5.003174460527303,16.310348762427665,-18.943842611525326,-20.399100893590244,48.72534923448434,8.353878455969205,10.654748782215005,7.414634674421244
4.8423556210870995,10.41975775954499,-0.17982718132479647,14.099627574599289,5.83320298575388,-24.22652647768759,30.888699376349123,20.74514337677497,-7.560007200118026,12.991675879257382,5.216796399947578,18.533448694772616,-20.645455946908207,-5.38133504406238,57.28994712413856,1.9773631281465562,17.519626344615897,13.241093689520763
10.236931626539983,6.870939871263197,-0.0320521845622217,12.019078686072227,2.702591960317329,-23.26928509164343,40.0888586872257,20.535446736567927,-1.83700069729122,10.802614353579322,3.57451633853058,16.554768004445478,-14.534834769383302,4.072585533341526,51.206928319180314,-0.6870667905504559,23.900813861456516,10.474208063667021
19.737710763060136,5.666571970287379,1.386163215879444,10.035640220431961,-8.040825772952065,-16.649681504283095,44.89664337712796,28.23561041081011,9.456491863163738,12.036092523837521,0.27161916629517524,15.06188261631145,-15.553641028608876,17.337808413763756,46.98056980394814,-0.3229906782832841,29.60301867683686,7.317318066620352
15.1803901509147,13.545129965718068,4.074775460725478,11.079037669273657,-2.763878486871019,-0.6567502566314918,33.59314546807681,27.14628635655417,11.281207305550378,15.520293668976283,-1.2739051749037218,18.35173744695589,-8.857924886831183,27.28532098903649,42.950806297216836,-4.059399318180694,30.52463569153384,8.946372842521331
13.655109884203393,8.143082347382379,11.842391955404706,13.0984515857201,8.474683408002615,-17.283347767530564,52.95644047545659,17.853546305652255,14.184209656627605,13.149699433449904,1.3793555154244102,18.025771167153565,8.970308890034207,33.231519391209225,33.06297153944787,-13.263477399001447,29.497756523567823,9.111364667356526
10.376675005421879,14.558558351825987,6.719943125016135,10.136752769823362,-3.036520696301429,-2.4660241135705023,39.50901241390722,7.095899278377681,16.895975587480823,5.510328145816741,2.27424747891952,17.11137803981319,-3.2805307698695305,42.305416848826454,21.028170550721562,-18.950689747160688,27.694288387043674,5.077963101607212
5.247460782231139,16.092173374689445,12.731186697485922,10.299526500468804,3.9140686595818477,10.884535264155415,33.87649337711474,-5.712476661451197,20.686082131323108,-1.6359439271580716,7.563176460758953,17.757032689892238,7.515342916839288,44.448262211254196,17.686520593560147,-26.68750508215221,19.840724842707107,12.373833664479948
-3.783313660207509,16.455009340973774,18.840750708208947,7.336670203787482,-5.928001506802781,10.658744207938135,28.246273425130262,-5.727481056344169,14.128599142296032,1.6720399194424118,8.163940504351856,14.884537026611355,3.857334709162327,42.101492958027805,11.319198124362696,-30.028490721535082,16.874741533671937,19.084815364030785
-8.805341078565739,19.944093361605756,22.704801058726794,0.9552034531648577,3.277648689305612,25.763268092361965,14.708081945938691,-18.437660775074004,7.965902449025874,8.695960341695143,9.252367507635682,8.884526496512017,11.136434783883459,41.41753860198563,3.1958561629220164,-30.438491596166934,16.745531912965276,21.304680284799907
-6.400571687347052,22.457885548804036,25.397523528688446,-1.4228926552128787,9.069726275193137,11.66615242310532,30.078890379418254,-28.315312577990277,13.330997731184599,9.572447729651504,12.097975592917267,5.030523681114344,17.92666599866152,48.060537888077285,-3.070069419994093,-40.4176779669308,19.160126038315866,24.30702638952854
-8.776195570507106,22.433945823606486,26.430579012120123,-4.582854436352886,7.639564609526722,16.219665637051822,19.670364729958287,-26.766433628278108,10.30172812544109,13.969677823943384,10.255321278879851,0.9787476005355993,20.80998656225261,39.7645138485077,-3.9628034410886883,-39.84853562132989,12.106622470943483,30.142744445341314
-7.924252087471533,16.649651006128245,22.190579663275336,-5.594956573295127,-4.235558583300918,28.290801934942998,2.037473192265036,-25.509831997792578,12.647855870874075,11.24301364500142,5.775184383119129,-4.345031890426247,16.27069755197437,29.908562676714546,-11.787127600907933,-33.80924808158794,5.253135444758087,28.557848119315707
-6.67679127585394,19.265454063373433,19.122883808655757,-9.049119524183425,-1.0669920921664353,47.09827683179256,-19.20645317798575,-16.439795581764862,16.365433191668124,11.548913999499783,1.880237553359236,-7.132157672605663,30.38339586831212,18.785641450801666,-16.777177344238815,-22.006823994925448,2.4083121922297828,27.46268883569893
-3.568924170170882,11.238174642477578,22.793929049979052,-12.308590707563202,8.941992793894148,16.488868100004233,-3.6311181715285024,-10.884503751762137,17.645826421179365,5.219313493037781,5.11351659402815,-9.824067693594843,34.04605575094001,7.762940514508685,-15.319528795836725,-15.574228498934684,-1.8966879129213545,25.88076169726026
-3.4835165187948562,14.247908285074692,24.316806388396977,-9.709227276009763,18.76001547758868,2.7721606246511037,5.305772782662736,-2.3984284847525537,13.364004644084714,5.535712623832994,9.810839829134526,-3.338586218458982,24.817214976555526,16.95793450957209,-12.101669081354025,-5.2339600045585035,-1.9977256176472942,28.59736645203833
2.7592788619401714,19.212560578546594,23.691460126021457,-7.891761267446922,28.094077204451587,2.7254293588560214,-4.407696259632253,6.67476019349559,14.45765004011103,9.275450681594108,14.311993011461077,-0.2735554341803823,31.79886183305475,3.8894849118378616,-8.979013992290099,6.3772377446292055,-1.2151762085145101,24.967877835166746
2.5616314127605087,23.78841930561487,29.218741438345166,-7.442144410679987,38.31135854095501,-0.44847550389845736,4.143083745051387,10.964000748826955,14.579023247538313,12.922890527286768,14.027029820292194,6.597704150846179,36.04537687993165,5.667509748427928,-2.240491305856853,13.497572208488638,3.4783357397860115,14.69938892338183
2.5642836453702964,24.948166133617583,28.593717311602038,-4.649387401605008,33.88424871750246,3.6998069232568227,-6.542478949810253,22.09067673888181,15.681291230943689,16.08743941642538,10.127810783405005,9.56023825813217,9.82194446418718,8.32692736932876,6.551450013374825,28.43193158299224,-2.0775789595006557,14.784410648303353
5.111035724704633,31.188094075872524,20.2538051513529,-5.177643478173016,34.539578837791474,-17.154451383176447,9.044100240749264,38.49237498310642,17.862122261348446,21.015260218938412,4.176827621597777,8.32108137179222,1.6644443676628762,-6.687259167337469,21.693822141559863,48.250595336633324,-7.72653449676103,16.33615062339004
2.77991197734474,33.133127658859095,22.36328490501688,-6.780788372858298,42.230468965689255,-28.245109625080303,15.843667518301515,37.41495074733786,14.187825646731484,29.65953913840856,2.1311706490710742,5.517000734069617,-0.8296730964110801,-8.905862678685164,27.854428171554442,49.12508520983372,-8.39034979855646,21.698454369160647
-3.2571840055223023,33.615406839722795,23.105509366545284,-4.966569199073385,35.96046788782549,-49.396702321297944,21.082867813958238,47.8628595086047,6.02561689509468,27.46930077617792,8.67837990208731,6.323865428229307,-17.973234193112923,-21.962085362905917,36.75226185342237,58.692550591726295,-10.123828367577524,29.699486528438676
-0.10942172619261648,27.16616153829482,23.554652137961206,-5.106164187986931,36.92126578416769,-45.35479706085696,11.675533379253977,56.06646438888621,3.6295641197914468,25.577551803217077,10.048682932707525,6.249428906275803,-20.664248308433535,-23.004046376339907,44.77404833237952,58.20271284387999,-10.094921506763058,32.52668316221357
2.2621161682230855,24.234831159525505,18.241817387289863,-6.32065552644222,30.659475343496425,-53.619976280272006,22.094813205362765,56.947665105283335,-1.1059214920788563,31.01567015517229,4.679525271849947,3.8288352535667953,-28.434279053890585,-19.063134544579093,46.45101225226611,57.12837872010515,-7.717710649466579,35.45361524297764
5.810589333148171,27.06760275388487,6.580995495209038,-7.438151467482861,24.499382979244114,-60.324849491385905,28.219209518435466,57.34260330187916,-4.958132708620209,36.459342261138175,1.2624156874080548,-0.7425891252542964,-23.31431747218332,-24.202097096210096,43.9316785211286,53.321082355464675,-4.554749575632606,27.347351124092995
1.2585152716864887,17.890824441481815,6.638804469445807,-8.946941096452468,15.218236865206253,-62.24671822434397,32.09949625045648,54.712275118211316,-5.778599281205494,35.560828195104435,-8.894214212726009,-4.046811615100239,-28.05863190091873,-21.916809640040555,41.90366980512448,47.85506174538802,-10.469501998791433,23.149573498197924
1.59437416072652,10.962580892637604,1.2274174464268057,-11.628285933796095,11.214553975200054,-55.77225135834994,26.89959036451374,51.30290344026068,-5.813451139738275,35.64446785046744,-16.219934766811985,-11.454995378012754,-21.3778495498021,-25.488759506337665,41.245953410190424,39.26545206759325,-10.618025359137626,16.707890914848385
-0.2131926701113791,8.138421556201541,-7.309445030237171,-12.16182159524938,6.531161239430727,-61.70255109590187,30.295499023079298,40.76682744442216,-8.383055259216825,30.557829145244604,-18.4686461127649,-15.252165512751116,-23.096505924928724,-24.27328861078798,39.81010320340187,23.450627943360896,-12.129370571659539,13.881811698329972
-1.1367988161315568,11.469209132926158,-14.284277212494404,-14.35619787627861,-2.933619555410189,-47.517591804110275,29.98230063755321,26.22918447778296,-6.651375576202444,28.60182167317656,-21.10920908752824,-19.149301781517586,-15.733879525878981,-22.176743014624886,29.002278717610714,14.66861757872108,-8.36284909903664,8.811913109647389
-2.348342898002606,2.2047054440390372,-3.7789337335797715,-13.816813521143741,-7.804700650171181,-39.78027891906393,32.50301499113333,16.674573637935694,-1.0090507673410607,27.33499972664846,-21.504891266371786,-22.56044240171745,-26.14586263546896,-5.7223918497846675,26.98685681690643,6.474006728189861,-5.568595975460177,3.5490471340803325
-6.191618657634034,11.302459812172142,-4.211883686489571,-13.864027839097679,-20.09404150232524,-17.005908029910913,35.904436059905386,2.141989751085683,4.73525758089559,26.171410760232696,-20.827611205489934,-23.044127506783703,-10.777116694967905,-8.504535765893907,27.220802669664035,-6.992673930041981,-6.969358132082066,8.542629204449801
-11.104112511473748,20.305202822997675,-5.915077887854803,-11.372788360722005,-22.711597094166954,-13.472342673068749,43.50687343920467,-4.0870329085813495,6.7728858409588,27.259515043971962,-17.221896582279104,-24.897280239802168,-11.425167868341724,-0.8352605325305369,27.458018603055628,-11.961689438793787,-3.0923780932358422,7.288536295540997
-9.370875568627016,21.40035651521178,-2.638488379505711,-13.862735341656778,-24.544283333204326,8.223336514649805,27.673130826179907,0.038397094986564184,7.252290456386755,33.1383998981751,-15.082369462983815,-29.78006366625476,-5.335775975818941,2.9297065864483036,28.968082221554727,-15.171431729573463,2.839593615987887,7.501762783201944
-5.972467520317497,28.650674503815253,-2.097144307182388,-16.841606032731498,-20.806934521408618,12.045429910495457,28.735796862267364,-5.892111771909523,11.154000221695474,36.58137472318582,-13.334817444747014,-30.661100856650705,5.733206449607707,-1.0183263925953234,30.579124304160455,-21.211823881732712,5.552992172348389,7.619815604600303
-5.596477245830872,16.17689248331981,10.455205206655938,-19.723446307887478,-10.42538107002828,30.220999806065024,7.53405761294394,-18.069834241913206,12.423217148300333,32.217242086536494,-11.68628898705337,-31.64199611162762,16.605905980288174,-0.5698404291241346,22.03710252675991,-28.813325970864177,5.829030913019531,1.001997113661666
0.546272060055949,20.307724428706344,8.260271326829239,-24.266086810456688,-9.122586652884015,36.67543914689367,3.6192356887091286,-21.55306544163878,8.813792933054149,38.60094701191822,-8.867254055153197,-33.69930488478708,10.680493550053054,18.728468698555712,19.455561190460035,-39.24550069799957,6.792707237653761,1.1251020678503352
7.670528821050116,19.167869024748768,10.849533945546492,-25.2936576322073,0.9727457266612056,24.76803264583095,11.913064550640208,-23.177779336809344,15.364997066999981,35.51730783503294,-4.8777321120852015,-33.61029863091356,16.765989163526925,21.915088156446963,20.97901726230334,-45.184030995968044,11.471359133166189,1.34842872307879
11.284012130804332,16.175377509841525,12.070487256565443,-25.833538031487763,0.5243121536056794,33.65954658868532,-3.0342813252806806,-19.818863208669082,17.1351705801726,31.853145632760892,-5.674863616594378,-29.617113730720646,18.651194478280583,12.40799647785748,19.28315118205186,-39.01162792986556,8.731950623338344,0.402449042792135
15.293004136458595,13.967037088268501,10.458196996761682,-25.202112137880867,1.153310435202143,34.345646066738155,0.965274251331774,-15.96851090468628,19.104831227258728,29.85455137272819,-6.278120952280055,-28.165135564205162,23.26979537548791,6.223020207544431,24.719691348846023,-33.7167870833124,3.945602203685114,0.728627148840225
16.377111569804445,15.960894805718265,7.965749884940184,-25.645495288602767,8.426156604695707,31.904548883457288,4.282456374032339,-20.41585970403267,16.684035943487903,35.185633195553336,-9.031305808255599,-28.180102359032826,21.539608121538546,14.981387161612359,22.05403531799805,-34.377728443018995,3.948298893149021,3.987163308568528
21.079370227313944,15.711563911098057,8.108756622126531,-29.898090537533985,9.7449251605984,36.29736124127201,-2.750921850710373,-11.187861642255086,17.587714617124632,31.342188553667572,-9.539834575245463,-24.388468372650564,17.65990137109303,19.737452117405105,18.415200292126386,-23.709050871745053,-2.588315499113728,11.15465170871553
21.977756335116574,11.754200398015259,10.398860768775432,-27.60816279408969,14.387022540888491,37.95364270236569,-15.349703149164071,1.3638163205752711,16.93294633925028,31.117333326777693,-11.124083863774914,-20.40354109454485,18.173729237383007,21.956037215916375,2.865518791316102,-4.640506829978214,-2.187532676822741,4.94568726472885
20.244124483693426,18.249196723599997,0.6756225381430703,-25.80705377056076,24.012549619869027,21.150516590631447,-11.736284728935274,-1.2180881873969334,13.157171035403401,32.948492049147575,-13.100461666979703,-19.64331144280581,20.541975666268836,18.316735059088032,-5.649410846831309,-1.0006065843879117,-3.736268307327789,-3.7997077779847217
10.50725787318169,16.348627266307208,5.697195602811387,-22.346276694344898,11.277256638942818,10.107123347492239,-0.30930665923728995,-0.5738725297961231,7.920531718119117,27.167493354864224,-9.023568019711432,-15.857653005427625,9.139387065085517,17.80401329108129,-9.86401116568463,3.421811606886476,-0.30088559105589674,-10.686923816799577
9.85721710569885,20.99414263117278,-0.22047240767981613,-19.471942223125534,7.333878395358624,12.831419968897995,-7.8270652090219635,8.76534116244951,10.891103749750863,18.95013899371441,-6.608373970803633,-12.073923666707227,13.067954443337465,16.120886743066496,-21.790192496008494,13.704925627253449,5.384134598140045,-19.036314476746455
5.2078182253388015,10.310423583227653,6.165094428760668,-16.012139275119104,18.62773967163442,-2.610650826561419,-4.504026057232071,13.127510577247275,13.96325144469127,10.5424952155836,-8.882277722531676,-9.952271975647772,17.874316309231656,7.896135015852926,-28.92777477281671,27.797896812782938,0.6232205281477743,-23.28138075075821
7.984967173688669,9.786153104667592,-2.3926790623488206,-12.162164342120132,12.248094245587021,-12.878863937178972,-0.008382747493151044,15.344748327707661,17.722875648409037,7.510988234516532,-12.231949816206026,-9.785637192945547,27.562423643151714,-14.292274852615087,-27.761092310544356,29.196539408590812,1.236859258915521,-28.40266125348907
8.325179644623216,6.33520513357179,-3.2372622165039946,-5.578211934376164,11.339737039718248,-26.664731535707425,5.757444442619597,21.374211510415492,12.40415441437754,12.004020258514075,-13.14171719209519,-5.421546853595592,21.233503264703707,-24.07679768491905,-22.39178535287656,37.04174123009634,2.5374111286905565,-24.73203523544572
3.4939834463677792,5.426422608874521,-5.1579159927457905,-2.217383789813585,11.019689898242078,-24.827308338211974,-8.886641463188212,23.50097036147624,8.749388894871268,2.536817383168522,-9.560771543815774,-0.18032846165579564,18.126112757951283,-28.586493047990423,-21.706725525765307,32.9738162740792,-3.776101165611834,-16.761755898724484
3.7453828930468482,4.0324235177752215,-9.521912325395641,0.5571001137152951,0.8384818583948821,-38.61704143198998,2.251391407349253,18.79532110623003,10.274205151475318,-2.7263546937859147,-12.036151688976204,3.301295430313118,3.2009424829325552,-25.672935002531418,-17.893312929438025,23.633458388975814,-8.621578401958413,-12.9880454025608
7.516792794031668,-4.682827510160667,-5.58696252508742,1.1827375424752908,-0.4536953183685437,-39.90847034088353,-1.8447874657793122,20.148110562617006,7.310432019323278,-2.5160221067482382,-10.118480958724813,3.753811347292535,10.8334988762922,-41.7037574712871,-15.541482627486516,24.352898660019974,-7.213863107555426,-12.922615409709131
8.558053469916162,-2.066697092874062,-9.759628743467117,3.9564911827087705,-6.919652091127084,-34.5610265856653,-4.768757749814672,23.848366387269866,4.252610620881843,2.484131525913064,-11.327405512939368,5.278882182311413,8.308420470624519,-45.916816077583285,-11.330894630267483,26.538220197840282,-1.2132098061290773,-9.924741539356774
13.90045492514703,-1.3029764884204589,-13.934379370140402,6.143966883795983,-5.571006390239994,-43.278116611864675,4.80769815094588,18.274835924628242,3.9327559607178753,5.047351422406987,-12.049587781048963,7.876546348188793,10.079033864372125,-46.41774664913687,-6.824097789316486,17.396221647500255,3.325527559655244,-8.779656584251192
18.856355361150477,-5.419053266492359,-27.584074964789266,14.581229423773514,-0.9977708168659323,-33.44201917596657,1.4934873888863063,17.587906536152076,3.0304431575130213,2.5367941204437976,-11.210790086090164,6.078009361657633,13.606218460060623,-44.37848504853599,4.2289764812730475,11.184894039356161,8.160113179245213,-7.241237619279374
20.886580266952983,-11.387536325978854,-30.98191066548049,19.40487035490952,-7.458075648549748,-23.705325045515643,-6.410562588234566,13.584339697644296,9.358227468383589,2.3743610324174966,-14.37749973762359,0.5669148671069681,0.7256148377545801,-36.08807968107071,5.61711482011841,5.7557264384884474,10.45839640999309,-5.016518091345381
19.698080153240326,-15.497431535171685,-36.23750371404389,24.13059191127551,-10.401019182328382,-11.431236095251656,-17.83029705694795,15.15099800530777,11.880718087053165,-3.0573406622943686,-14.51835423403503,-2.211286375542798,-13.425847421849396,-17.34728977543716,2.418489557982962,3.843093310028263,9.341380400537691,-9.429836746450764
28.37691292588063,-20.38549895579817,-37.19847270870742,26.805263109728024,-3.47895120627744,-17.90909901756444,-2.394239108084422,11.54553487723627,22.41443320526656,-12.78182479525168,-16.8092072702032,4.774803231171493,4.550758296150329,-20.871499840146875,4.5941584316827715,-0.5101713424328373,6.27385308686579,-7.590381690815789
27.586763762887095,-21.852457860687217,-29.567932023140692,27.624223432613732,-10.618122231151919,-13.548576407632044,-2.0952970345148607,14.584538290450375,18.595679795841352,-17.424041580827783,-14.999955639277074,17.61891473581592,-1.0095007564025869,-19.70721465665732,5.893992771988325,3.145265258165108,3.306547907134169,-5.162313228285246
23.96827372449303,-23.21867447392305,-11.197464984538286,17.993615889056407,-22.345836881715414,-5.380981963382151,-2.284889512584984,16.45538704106244,15.268361681265166,-20.79273807959646,-7.332750893884078,20.402877447182334,-15.555642509313955,-12.97555511736922,4.560118471845282,10.414757838158334,3.2714593210222063,-2.829248490728027
26.50586665202399,-9.835491738413914,5.803316384641981,-4.723294261952389,-6.532805275829795,-4.5392530580284856,3.384657299334213,15.595551884266783,22.97944000546174,-12.829264074903932,-2.401463776188967,10.001684881809021,-10.669286119949103,0.5929893514420082,9.967642375596919,8.01680524259201,5.680217764380412,3.3151075961026635
25.336019575914047,6.285183492575318,17.235078408507956,-21.776196602917413,1.2734473808695248,6.55504990530401,-8.231619756225275,18.15746164278593,24.15044467472093,4.8061001125028895,-0.6943713560378981,-1.182088557228477,-3.7335311850012376,8.595846205550668,8.73741651175587,4.154607640366592,9.458506414690032,5.555777443204062
23.193055064223458,9.420449436459226,32.1799414932726,-32.57912034490282,3.0259669558133497,3.8781705507680186,-3.930167161095394,16.03551168537784,28.156439835090346,14.144229936605523,2.5737684788342463,-12.660112601600769,-0.7055220077412363,12.986131196419691,4.092107431338432,2.6367654107832115,11.969483832325515,6.138871362355217
17.2448015861519,16.56274649972225,32.96180669897048,-32.73744282775437,-3.0331959195121083,12.332881595212495,-3.8285568051826644,23.585374232383273,26.208147972014842,15.282681251892276,2.7153982347776395,-10.174315501718262,-1.1946500755993346,17.767773107159396,0.5239310700238775,11.959449001251906,18.19361157769537,-0.013832444756334716
13.057650386497503,18.629897761184573,33.05739567402774,-27.036368993730022,-1.8648603914741422,9.262637548232483,5.061614127939939,32.50612242875465,25.434501267860362,10.46747876788444,5.297024293051317,-3.4904295009407567,10.326642560821249,19.327397473615587,3.2087063727340475,12.10276730621547,12.993856057941684,12.488657541738212
15.416727951919448,16.305499651791436,31.490086048285317,-19.382184194040107,12.09735254719456,18.49597842450315,-12.904805244435607,37.62187376230075,30.132355549968672,6.534559651666431,3.775594391126349,3.38761986506948,27.510579783339892,20.008752461176424,-5.627317753536584,13.41838499851513,4.573382937510884,19.03656828108899
12.505342151763115,12.909906976348468,25.232444475201376,-12.216307795048175,7.1145641467906335,22.55222131965374,-20.42263294121631,39.4208913343142,27.020171590226077,1.6283209705598196,2.155093308653253,7.6277999386996544,22.03639367521974,19.225854513166375,-8.99173795074607,16.394533621832796,-1.696717167456617,13.282122526120908
17.018890883281408,16.939334212498306,14.968033351457999,-7.003581931532093,4.866678519172855,2.1928451299953107,0.867712500850927,38.391434965222984,28.2074208326318,-3.665397828327883,6.3926617098062355,10.987991801468599,27.693638792456788,6.626946546125289,-5.2244170342587495,17.222502810847907,-6.500134059830041,21.104595662540202
16.750045611338148,10.13177454416494,21.302595737733984,-2.8650632015827195,3.4004256988942037,25.485349525941235,-21.495884627812515,33.75221061418806,24.807158899856056,-5.635710632078489,13.36327148303705,12.78463294071192,24.560112374992293,3.4037220374428045,-4.872436242401978,18.050703041105614,-6.907221632714338,27.85529930810617
18.14410352355191,10.65155779351304,11.227777097236412,-1.5585674734431816,-10.761078547549962,6.198005818635632,-1.5746842904155187,29.507150317244054,18.96776443732057,-7.993720491524616,15.156666283741362,12.334160711192062,2.381727717781435,9.94677632306865,-6.861606577811582,17.902495834802053,-11.511947536012965,34.803755119421055
8.896073113752776,12.73686708025156,8.279056239846796,2.580077287271079,-5.097923747030265,-7.523863216302047,-0.7954749960900305,26.925766254091467,6.5875191928558845,-2.82926018919731,13.433049312911571,15.300765404422265,-4.661330313910494,4.47839825001411,-4.160617672038768,17.852054030529207,-9.279074018187202,31.59821208410781
-0.6424439390677001,22.247156300058457,3.4718863866039644,6.035215131566636,9.842736306530835,1.507562581970232,-13.103545413967296,26.88693657627985,0.8501234793083121,2.630887066626684,12.489383747911415,15.141419585184142,10.65758670355686,-10.950634202202139,-0.7734845075082948,26.20022205689069,-12.51356353505496,32.10603716896922
-4.319131245949624,18.18600058056135,4.2282230531534575,11.443627266328988,3.884541217953036,-8.505170683035109,-5.978935152649859,21.382682086650213,-3.5180366235581566,3.9920119304919393,10.372538373312338,18.69220597371625,6.34562603217449,-19.05493503673354,-0.11827627987745082,23.61070275327684,-10.961440834279093,36.91314313055296
-14.04835674292011,19.49899061026712,2.44244310012541,9.332534586402268,6.031720315115118,-6.0185530994688605,-15.457415837891016,18.32323231217884,-11.00931436702265,6.234547611592097,6.59424903820111,15.40612927097132,-2.557944923935681,-12.900838138833967,3.371449314238472,14.966317438385888,-4.818109074322253,34.495881427809834
-15.47455860291101,14.369528855787896,0.4583036870873167,8.88178575768604,11.8895550301439,-16.618851795826682,-13.218306707892873,13.50925416716133,-10.68614121746766,7.209911893036027,1.4475144641157263,10.263774557832285,-5.506114872420438,-6.062802234911619,-4.562387203739668,11.692955004576614,-3.4587991569256014,31.006653002763734
-9.574442471024241,4.555443666630003,3.0610076589945803,7.747615455411147,28.977570357949872,-34.251225179300846,-6.976631402521999,4.108620180123516,-10.458893550822541,14.14466531888561,-6.434847267496551,8.538699809310025,7.266865526834689,-22.17403268488276,-4.876576398953727,11.64207751317012,-4.735128773908836,19.414062442355647
-6.797516994489278,-0.8611060083540529,-2.3473176235993494,9.055091091485,14.228581203509759,-34.40351788160909,-11.67408455131184,3.9886737871586426,-11.30424916330341,14.050216037035348,-11.193344370525628,7.496527961699951,-7.501407278135436,-20.511283486476906,-1.9657668840672589,2.118110206343399,-8.061239543495764,20.128537929001666
-4.702471271668081,-8.618514945919458,-5.610289008730163,10.26513038380427,10.41655539505427,-28.208648827181353,-23.99036152872782,3.5788982290881,-10.097261645003936,3.215457428027296,-9.31226989558782,7.527929269913869,2.826564014715986,-30.46956543972101,-8.134884577932539,-2.425670728914392,-8.8473057813071,19.673270492412303
2.667682151625897,-21.54886805120971,-7.899818782706154,9.619912152484133,6.11541436783319,-40.080988778435575,-24.198655450976545,5.320676317815462,-9.08416108524576,1.269482794194337,-13.389443098391146,4.043028859498519,-5.1092817772312396,-31.736098993780338,-11.176762921039376,-4.821409851799132,-7.777019773717598,11.40749171173984
