Fp1||F7,F7||T7,T7||P7,P7||O1,Fp2||F8,F8||T8,T8||P8,P8||O2,Fp1||F3,F3||C3,C3||P3,P3||O1,Fp2||F4,F4||C4,C4||P4,P4||O2,Fz||Cz,Cz||Pz
-0.6029333659381129,1.5192046381211437,-1.518040919635997,1.8638832311256799,-2.9162778368962323,-1.7744086632686797,-1.1402648093925862,0.14274784270558527,-4.60650778056965,3.904802596886668,-0.5835858985096145,2.5474046660131116,-4.2799929675397514,-5.760807055326668,0.4864566269561792,3.8661399291065734,-3.152908420926507,2.1337515310777047
-5.435914905577057,-10.97210618836976,1.9366190878211902,20.029332256181192,0.1424486286801243,-11.12724447972952,-2.7019250924262597,7.5200513437584755,-11.25261509988423,15.986905055650602,0.03439715126776455,0.7892431431701734,-8.496773259033892,-3.7476601842677537,-0.4653464588532894,6.543110302485723,0.467237724695849,1.6220128560077671
-7.341629839894971,-12.033062904575047,0.21486563670193304,17.591777495545987,-3.925437573895997,-9.05255981084786,-2.700727122273135,5.132013227840713,-12.91739425653093,11.076433405206615,-3.0575737436824855,3.33048498293431,-5.386223017629172,-10.328224095995017,-1.5139171626793475,6.681652997174895,-1.8700365357683095,-1.1337023029129059
-10.031055429875968,-18.265534055176648,-2.386344239833592,18.868084084861067,-3.986919905041715,-18.011614792107316,-5.921897422361732,1.8654809667016126,-21.612749770110273,12.709053744963452,-5.171917644664891,2.2607640299369756,-4.030458689444181,-15.93204566856776,-8.32339486035144,2.2309480656014893,-8.992745665879829,-2.4224183659589054
-10.183809934113244,-15.509201872493975,-0.49581780481654736,17.90121574903498,-2.6787239649345738,-13.296981585600626,-7.8731774108220725,-1.3029750087985281,-21.127498905944513,14.146532748700878,-1.9140271262177255,0.6073794212236816,0.2581433892980609,-15.5785852030663,-10.639707437014533,0.8082912806738161,-9.67015615745629,-1.4628928781418535
-12.48744455348897,-17.045575367787265,-1.6331834572581059,23.480452867332566,-1.758656517316237,-10.240906344231249,-10.214746346901284,-1.736602768861769,-20.93444420518251,14.21712816716187,-2.268405463749079,1.2999709907196983,-5.215872186979184,-9.756136072644132,-7.974556941585394,-1.0043467760554488,-7.710825800994015,-0.4036165036848498
-7.273820904640845,-10.569837407667983,-1.7944556975499628,19.39469210200902,-2.2032632749255505,-4.155799049352911,-5.817587095429825,-0.8026178061475138,-16.736646446102817,17.315588702537113,-1.9381035853208133,1.115739421189046,-7.463976567783945,-5.398402114450201,-2.9646932566203246,2.84780471304453,-5.556103398460069,4.075752631192361
-5.285266476852858,-7.312687979148649,0.8758812527183581,25.956822555247065,1.358662242523704,-1.8776836013281146,-2.1036860272755726,3.745100701761823,-15.858437061949132,23.344406651710244,3.178511778893816,3.5702679834617594,-2.0915235118634503,-6.021065868874853,-0.4929944380328313,9.727977134498293,-0.5691346958050438,7.873567245065397
-6.521755497324287,-6.785899977810251,0.518382262209887,20.70564065042831,1.3098461145261022,-3.2112272208995734,-1.1238540398615466,0.2852744141159149,-13.612245013286724,20.68246049723909,-0.9812660996419551,1.8274180533464168,-1.0127109356161066,-10.940526653973832,-0.5594516873543767,9.772728544869953,-0.2694699039245947,4.64205113401581
-5.026138169340195,-8.012959304582925,-2.280986390837255,19.65708980646697,0.7753648269867828,-1.2227136986634197,-3.1710629523924827,-0.7327257952626303,-13.806722206984917,19.974592880312823,-1.0383193138511146,-0.7925454176167435,-3.3485744300796387,-9.902724855175334,-1.6015325197528312,10.501694185720194,-0.8483609284522071,1.6078530802007642
-6.364876129977043,-12.751770273139755,-6.252653687722943,20.4674555606443,-0.8307003148457983,-0.013752130192712597,-6.292156816071679,-2.8245859424101876,-14.97700212993531,19.65842822100719,-5.586521842199062,-3.9967487789146396,0.47138757411904386,-11.501544304775809,-7.0372493571041845,8.10621088428412,-0.5478718296716298,-6.014281057468638
1.5716218772742883,-11.529598754676591,-4.365241383207082,19.718785461552567,-3.50832266667245,-2.90469038959149,-4.139381642601689,-0.4238222535535512,-11.751908207505025,27.644390922916593,-3.492884520427733,-7.004030993886989,-1.9553166764709435,-16.02996052442445,-2.3155905995152826,9.32465084803443,3.2688533205283985,-4.845266632616378
-0.5528432625843802,-6.104352396477452,-1.794588192735351,20.340877212539727,-2.276931985280661,-1.203975044245359,-1.4003083584286002,-1.4407191304072646,-12.725320248532038,32.60432967078424,-0.5192076050752356,-7.470708456280832,-0.9605315355020134,-14.698778807446496,1.6257850081699414,7.711590816458971,6.1096556861048565,0.9155869056998194
-1.2146228034950308,-6.632506146700836,3.4124827525989487,19.404061051656964,0.8126834877849198,3.8188570829162227,-2.762508182229122,-0.30879286533479844,-11.35416788649652,33.952443556656974,0.8930714231883544,-8.521932239135396,1.893256575538964,-14.637015700535812,5.275174143499938,9.028824504675743,7.095713021200263,0.3305851758895817
-2.0738609173994105,-7.449982690859425,-0.36527700652519446,21.400652312231095,6.248835512896464,6.304354589842723,-6.565799529887767,-4.1570659923299385,-6.661871494316871,24.169231024104093,0.06035400470243324,-6.056181836889575,6.508425304929569,-16.821249741554496,5.312221439051479,6.830927578135857,3.9809948627757166,-1.717413157148858
-3.911780090898219,-7.287304653293926,-4.045674472388961,15.295382396293771,5.925953429420013,3.518112935218772,-3.6303551475696625,-5.758873262622527,-10.757988182981315,21.61449047065024,-4.189247535314546,-6.616631572489188,8.295094141880243,-16.563910172655447,1.7369345070916697,6.586719478170403,5.261822248577964,-2.9823092616592506
4.3069857933736735,-7.121124308450144,-1.9645370080805153,17.201831125633994,3.066763097265717,3.272762658449472,-0.6945597605654421,-6.383772831706184,-5.38051744999663,24.432866824402094,-2.6759008444368826,-3.9532929273396675,3.444642304228232,-9.27508362425788,1.19004709950873,3.901587384004073,5.3718016638119614,-3.3664754319307315
1.7813816374350582,-12.32269385984086,-5.1571650000957225,19.698059524248457,4.800298600348804,-0.7794389051993522,-4.496798447025549,-6.031772240765359,-10.549292509280324,22.76106898941325,-5.263033338172641,-2.9491608400621905,4.750262562155495,-12.630821145688515,-3.750421805656644,5.123269396587111,2.9438223902111957,-6.385621184320195
-1.3321419401475774,-10.88018938667909,-1.1233429252869325,21.41690499889989,4.681166716758071,2.6898156317317206,-3.9040902097045285,-2.652066491954854,-11.517990681455622,23.23996255386612,-2.673155819536569,-0.9675853059373196,1.4696299635564114,-8.564440584929123,2.638430985159897,5.271205283081411,7.548440519814237,-3.836528049989763
0.14232304736143142,-7.481262151852903,-1.093685582855906,23.139671656039376,4.857853886300611,6.063231128474375,-5.654820884645012,-1.9088120598635347,-4.8685867554395355,19.717247686842725,-2.035279904184597,1.8936659416227832,1.90367645809769,-6.548742223546859,1.801641676030599,6.200876159722446,9.419979457194952,-5.485002572498794
-6.002391019877797,-4.860410237027044,-1.1618575244962712,19.69053779701123,5.916321193070838,0.9422495539851642,-3.6942127562074476,-5.462198073494804,-12.183436625902043,15.904054793949921,1.8264575650644943,2.1188032826460894,2.146113977117602,-7.755618173020098,0.5752587030417268,2.736405410251179,8.656194167463896,-1.6629618309919154
-1.1136037168397404,-4.384924987143206,-0.546570466244082,17.51494907430452,2.9736947179375406,-0.2705894696916291,-3.5887596113167115,-6.476190269395288,-10.805939554846757,16.585747852955116,2.564305908422821,3.1257356976935315,1.7086727807666668,-4.274790482902304,-5.239994340730764,0.444267410436189,7.30799417298411,-2.8198181937996054
-3.55091594764307,-4.297051693287105,-3.4470803573277036,14.269150738347433,2.1824235811062076,1.5457999973840801,-4.557202574404361,-8.36881709868452,-8.939340360455956,12.973263345378362,-4.118673527751726,3.058853283064872,4.888309745351521,-2.5516688050932252,-8.515096216575282,-3.0193408182465316,3.519979094717568,-7.10010959058245
-2.767235329889905,-4.987507566863752,-1.3671364215257715,16.300923062461564,2.272967015939278,2.3874551612137687,-6.0135987181394706,-7.91738068447845,-9.415707849762297,15.613768639528375,-3.085529642441019,4.066512597001757,7.681071110632593,-4.441748839217066,-9.445356410120974,-3.064523086725174,2.858736459705919,-7.0818835809664105
-4.914940818220329,-2.3547554179019485,-0.8497793634242876,14.918750433088565,3.635964162724547,4.305192040945732,-6.00479724357549,-6.000808239991743,-10.57485450627526,15.91351233550553,-0.9769879348259886,2.4376049392809884,12.333095687139094,-3.401960500610005,-9.886266207685154,-3.1093182587075,0.441475208435421,-6.5738286584153
-6.575950586355623,-1.6724027634718905,-5.703632670364536,16.07977429952294,1.5838499605887375,4.17396532729202,-6.679272951339268,-6.62307467155092,-9.291726462824592,10.845232483338506,-4.238458989617767,4.812741248576487,8.102039976585871,-4.6081624232155125,-10.423766498063523,-0.6146433902837662,-5.3918907319855585,-5.4783245298960175
-6.57830856411921,-0.3037818326308891,-2.0612683788706176,20.56527187668031,-2.1255315540651223,10.001710960685664,-1.7869355284518493,-6.7567976101426455,-3.1248738152616733,9.100594177933223,1.6810601554505893,3.965132583077615,7.6834151730806575,1.5101055829429537,-6.2726226945831165,-3.5884517933828564,-1.457471417102808,-2.3305433620452742
-5.117264757449825,0.7744370870592205,-2.422847885489962,21.34389711583037,-5.441364913814075,11.924997285914875,0.7619324538006382,-6.8902733539106205,-1.449433030906346,11.168010539937711,2.035249820568269,2.824394230488673,4.534154653788038,7.335541470545737,-4.9524757101520755,-6.561928942160245,4.920497138801766,-4.357197019339034
-6.489691954786652,2.1481058664150092,-3.0773472551067944,19.489892305516705,1.2068095126844187,7.209406504886782,-0.20456809719228364,-6.535220830729368,-2.4099003099923033,11.969401671340126,2.195284176282016,0.3161734245451897,10.0802129050597,5.3485009234016285,-4.803139138508903,-8.94914760027325,6.124805125409597,-5.2105723174076095
-0.05082638378161608,5.477309823391304,-2.2668968962747558,18.323623625658488,2.291410276707838,5.816025843531204,0.5870739568721568,-6.472909631819521,5.029055836156147,12.774438926676748,3.040080710704774,0.6396346955907011,12.895630079317744,5.021786364601951,-4.457400061054564,-11.238415937544877,5.2805935260510415,-3.523501655333985
0.03903206722468866,3.1446472580446523,-1.944620893823422,23.411581114331042,7.089920022522371,10.576926284554204,-3.210901968030681,-7.484609401830829,7.585989681755192,12.313690537087028,2.714139534534762,2.0368197925330653,18.351574428118706,7.527292225563796,-5.184804824810618,-13.722726891629335,5.024713956323438,-1.3468391802434416
-9.44274724583375,0.7165096746748021,-1.6221993907751997,28.406006318830308,4.859982725778618,8.698939158166695,-0.8561526050541852,-6.2499647663656335,-0.8915294243922602,12.442770517621776,4.2448470949061825,2.2614811688916334,17.95181183743365,10.032945478349468,-7.0830071927345,-14.448945610496768,9.361225682343951,-6.49324655832367
-9.745801073604177,-0.6353114522921846,4.462205864529663,34.771755779580154,5.269708073723942,11.900987323770249,4.428607771609995,-4.331507439577225,2.839047657657092,13.943055823206873,8.608776609173507,3.461969028305184,24.684807699719315,16.445057018570857,-7.515244518338788,-16.346824470399202,17.020669248200058,-6.07194540571008
-10.342850692103575,-1.9851544038126048,1.2693348898987198,33.71961908559726,7.830798765443745,12.858733054585702,5.221381332738423,-3.291769233471502,4.03140912881814,12.5177189876306,7.602673019231241,-1.490852255973031,26.24566933284937,16.90019620567506,-3.0634925665349226,-17.463229052669046,18.920965190881674,-4.28226273160506
-3.5188527269563394,0.0848968450492133,-2.8998719994317033,33.25751288027765,8.050988105529342,12.939376225845242,7.381622151199515,-1.763549871246965,8.837999521031378,14.026335572688891,3.9609474456842912,0.09840245965929961,24.099241985463927,16.183593215234342,3.5378349171480066,-17.21223350649616,18.48022395005537,4.637563069817795
-9.098244127579298,-0.4800442230674329,-4.725018842383642,34.65496548215801,5.344316921584909,17.807055999781397,10.323372666821854,-1.7000123746896918,0.4616943419499755,8.898556242134408,4.32431988477355,6.667087820392592,20.393971613098024,18.20155833181995,5.940987429751391,-12.76178416114902,13.159432945869787,9.945134630538227
-7.354074684167313,-1.4339579710327905,-5.084992122232633,30.68527756391011,2.9334757918121093,17.207698610911194,13.363016769528052,-1.929272234249396,-3.8120797160561457,4.94710744144713,3.809896254721434,11.867328806485665,13.371991051581357,17.973547236060778,3.4623630032138735,-3.232982352833273,6.9626472843935225,9.687250293141071
-7.270767378778785,1.8129592356637618,-0.8547106066462187,26.817251771273646,2.8692602670708673,16.512467428053007,11.910627909731058,2.0409180514786636,-5.05755126176077,2.367409917895591,7.788844436159442,15.406029929336642,9.381022018953237,11.98388144149268,4.598186828803215,7.370183367104163,0.7688734549656271,11.676481501391596
-8.750572947225894,3.498788802127225,-0.5303637823136556,22.269591151999883,2.417234456060111,11.717381479389902,6.8451121296343675,2.3979305334392844,-3.665344909033405,2.3314598503059862,4.932857984321699,12.88847029910956,4.905350898896053,4.334185909094266,5.051519706094292,9.086602084457716,-1.222519846881812,8.686106795726857
-3.297174057313929,1.8655776957772539,-5.869756721972915,17.72586064926435,4.018820490672061,10.14675636603664,-0.8569676640760147,2.2668039449630797,1.2434651325928074,0.6400757388818725,1.3943651692570107,7.146601525137139,7.952873803275089,1.9581597695308857,-1.1347596000420281,6.799139164849495,-3.2107305607314185,1.2043652584029443
-2.1411144676949467,1.2101509808350575,-9.255551114398532,15.82277583059182,2.5957922798325135,4.573903132615563,-4.066611829238474,2.6241065031355477,5.274286436570993,-2.901958541851844,-4.193852507009573,7.457785841735683,6.804619702101089,-1.491950808283198,-3.901903412298791,4.31642460484279,-3.5354932250506623,-3.4444631529890284
-6.356530545627521,0.06752525351415051,-9.027530480660904,14.021187890874772,2.445064526075189,4.86223608230998,-8.350327851399634,5.422983573627944,2.7629756725820407,-2.532738940280918,-7.2418921778157666,5.716307563724778,6.831718432008478,1.0152104336108259,-8.035141042298175,4.568168507308201,-0.8295166300793602,-5.4557454097721605
-9.302594771817795,-0.8788144143403895,-5.673948324311608,13.883569002872548,1.41813879624985,3.687406000227069,-8.629930466839083,5.292249739858685,-2.0911790499870975,-2.4514528703249425,-2.5739053258518436,5.1447487386740685,0.026185750578420652,1.5693651954482917,-5.038249648181681,5.210562771666479,0.41502496967669344,1.8111923849085967
-5.60802783561908,2.8632670997520653,-3.4917097308826492,10.526976423099523,1.4681394303283581,5.834622208630366,-6.663277164404643,3.9897343252600215,-1.670869063134636,1.638933674532991,0.1419792680365537,4.180462077020179,-0.5258944156398702,0.7564582467821059,-1.9425875938810353,6.341242562567025,0.5888432456806258,6.442052556487936
-4.940839998285584,3.8716587993387694,-4.140960537450438,12.34991604393678,3.6692687686335397,6.909265231391352,-1.180836449823806,1.3201115429974335,0.019942846776161538,0.36336910906073605,1.1987215124653194,5.557740839340364,1.0737958744285496,1.2132465711815588,1.2518435036007791,7.178923144000929,-3.628345362181183,8.534438518705734
-6.3243454415548825,2.6345248102182643,-3.6176974083960842,11.344389438365862,4.310497521054399,6.423023988410785,0.9813297586643746,0.799049407591764,-0.14378685477997166,-0.6139081438293665,3.7213549671389856,1.0732114302044664,6.192404269127823,2.25612365266528,-0.5331610233012845,4.59853377724199,-2.666003847470634,5.060905048647642
-6.242754705676581,2.4721018866336784,-0.5546757683074128,14.151055273757587,4.563681016084567,10.723628016824264,4.706087357587973,-0.01490655451120837,-0.11124191610019274,2.222868081488521,5.561394402960984,2.1527061181568588,10.630583469254475,2.908509414342075,4.518982617755543,1.9204143346451932,0.8391861214334133,5.59185444663407
-2.4498265626291733,-0.815021049456,-1.6902432716657392,18.914344951247337,3.9404905875000447,8.775727935047978,9.602783252723865,1.7103067958123317,-1.3472852034633074,2.7213457017428944,7.011797264979052,5.573396304334667,6.8686192327523266,5.709502078514671,8.400336365988073,3.0508508938400554,3.176306551161674,8.467047941206905
-8.81284452626008,-0.4885900275993419,-2.239134057467556,20.653638368511285,2.440883834239776,4.973896149588417,12.448688841532942,0.6035020562450506,-8.734800992955828,-0.2902845951548194,11.783541066528379,6.354614278861533,5.6487909280774895,1.2839552199363846,9.35305690414472,4.1811678294577295,1.8063311203046597,8.901198120934392
-8.046270635317608,-1.7245972264769047,-3.177888776797593,23.275166015294726,-0.3258150631567105,4.493965856158278,9.435128016422018,1.15692319394461,-4.695393865924255,-2.9056316104626063,10.599123039891136,7.328311813291492,5.408498854961812,-1.2859650551520492,6.20524671097855,4.432421492589253,-2.8800355242930635,8.652085209922088
-5.521160281468992,-2.1793906913303065,-1.5767383424949146,22.970193212161824,1.695126445583969,4.308518970512289,12.476319749788596,3.272899990423351,-2.119883897136542,-6.491824089625993,12.540694716565502,9.763917167156034,7.417213951729536,0.5388384119134461,6.37888873458753,7.417924058086285,-1.9958666056034984,11.332985544582188
-6.510908769879826,-2.9273412347343486,-0.36537796691130575,19.543318033398258,4.695006656208464,5.101130450365864,7.802496259209814,1.4825861061306624,-4.621606452137021,-7.1424747877240975,12.920665419413458,8.583105882410129,9.331066933368833,3.437998010080091,0.9871226405726488,5.325031887901024,1.529176808828148,6.494459936306304
-9.257551783809356,-5.921741198549848,0.9445181269538976,19.34220358270113,2.033046879249852,8.82492481803583,3.8121956618544632,-1.1866418337970588,-2.923075836988202,-10.033368270987548,10.762437747783025,7.301435087576593,11.149970428681563,2.333306441509018,-3.4269896578406382,3.4272383130001174,-0.11745466923971559,3.999878207617133
-11.807807210327022,-9.404890673514242,1.9623561147029456,16.70260744302593,2.6937043060416563,5.909412229481529,3.0444905431157787,-1.4144344248201244,-7.766643760837502,-8.426046789240013,10.460589162719861,3.1843670613316686,13.948068348835793,-0.6267711883125018,-7.351744245816927,4.263619739118602,-1.9551478097608408,0.04052563296456313
-12.794337079102986,-2.4392640584358167,5.129616671102664,12.991641084331668,5.212055371999689,4.65546828459984,0.8117795848211709,-0.5680142434938976,-6.2614895305011515,-4.957197630049768,11.429151537687636,2.6771922408436026,14.697875652419523,-1.9265617812243492,-7.759759285791113,5.099734412528015,-2.0306806931484624,4.870401148734055
-11.728720802518792,-0.7479006992640566,5.172819010600384,12.799118082873225,10.1739864754452,3.891166818224127,1.4109724195620166,-2.260732357439976,-8.173388913985642,-1.1892749294850464,12.398551732620515,2.4594277026241187,16.52434105491692,-1.175440294836195,-3.7721239599792153,1.638616555694272,1.0232207668248474,5.500960631765162
-4.802172371736743,-1.1082402535112523,5.998309907417659,12.316283132967111,5.3722174584324085,5.471970669089153,5.916272105312849,-1.0237704828762262,-3.2482817387926213,0.6316609982387025,8.87651036069996,6.144290795072302,14.935105666910008,-1.0101720044210953,-1.2483122724769893,3.060068359949815,4.862835112030918,5.35015940804944
-4.4170884089175075,-1.0789862084140411,6.727206832645482,11.640687395932261,6.7248947080696775,8.421267303850557,4.952502347659059,-1.1540848453249173,-2.619153751175511,2.4588306595136125,10.62877728603267,2.403365416955399,15.105922999620985,1.8895995876482123,2.4484243956449503,-0.49936746865705706,9.683540682269035,3.9296423170143817
-8.522517790161919,0.5116054077935637,3.4532372548123638,8.037804524799956,7.688881749195819,5.317032465425049,-1.7733444793165445,-4.311873196194163,-7.555559813381272,2.0461697207570975,10.135681574014002,-1.1461620840674596,12.446768681568367,-1.3629869163407915,-1.8617526801358224,-2.301332545979678,3.18052360766217,0.2627646305451643
-12.723721450948432,1.0266247714536405,-0.6008564064055861,9.710772120799064,7.092215170089409,3.190586597424077,4.488982154981285,-6.8838158436184305,-10.733174568252974,1.4445523918764778,7.885486204797431,-1.1840449934454438,10.863837872104607,-4.615501313229885,3.0089068085394737,-1.3692752885366877,2.0533173423561832,5.09180958547517
-10.086856935638767,-2.366155362309267,1.1080313347279889,11.776587758488326,3.958244382758694,5.459912954491729,5.672763572779617,-3.3034388323222643,-5.999566497075,0.6540383089231696,5.147715322697777,0.6294196607975049,4.790521086501412,2.093138082400202,4.560199345228413,0.3436235635782252,4.2511677124485,4.061020367174233
-9.303318094926471,-3.80742531793796,0.27902934522464196,15.01639519394028,2.583834099279793,5.484246790381118,6.074902407255836,0.08148694071674623,-6.538537630800308,0.16297376974554645,7.195859682447962,1.3643853049808436,6.433913707989902,2.747053693032057,3.378057751747012,1.665445084864338,3.9146671340853465,5.080604093540784
-9.787011384203906,-3.1020263109797095,2.8692964161593553,8.883037684401504,1.5040396865193761,2.7752602593291016,1.3984189744489521,1.024815092212489,-6.100000761972042,0.3620452854925684,4.6547483060855495,-0.05349642415688094,3.9773032237609893,2.2291239418376563,-0.6351901887117866,1.1312970356222471,4.461891769752496,1.7050792803555148
-8.510397709295281,3.5585348536310235,-0.2033007973664413,3.142165899572902,5.406351454484951,-5.596818676845411,1.9949934231814943,3.6281517583028133,-3.1214413076635004,6.622482060378645,-1.0107813159367556,-4.503257190165834,6.11209874533812,-2.195076870828998,-2.694330560379108,4.209986644992403,3.25613630495591,0.4774430984404252
-8.891346817254682,2.1113829391126098,-0.7354758084275392,1.2116749723723323,2.767072156684822,-6.643551062575792,-0.5339813946529954,3.9851677764972964,-4.243596004510546,5.076936430044338,-1.2068773239932735,-5.930227815669032,1.6075266094296214,-4.861409187372219,-1.0415402824448445,3.870130336338733,3.4225004843499836,-0.16490047729789925
-9.367181740328087,-0.9982338607344385,2.7376736096169028,2.7984635932009887,3.156573716014684,-4.8572340358221755,6.7999312714096956,-0.2479427981053388,-0.9702530667202289,1.096633469561766,-1.890691773340862,-3.064967027678125,2.2800360584555275,-3.2307815319555373,2.858297394461128,2.943776232533125,0.07814773232229655,3.0983387901451813
-11.011982568986044,0.8702461175378078,-1.698060924112989,1.3593328779923475,5.402873933071614,-5.804400445097993,7.3948717168399725,-3.309394120425705,3.085238263085504,-3.8535134254324674,-3.3552283983823656,-6.356960936773975,5.981015748270011,-5.115823283698022,4.2199351318144025,-1.4011765120016495,-5.019033845308538,0.5013132341630606
-15.38811621310516,-0.8772249467535995,-4.276869705872334,0.409829083710477,4.525336030388441,-4.01625903365303,6.524312834848224,-4.320288010399343,3.137634556746006,-8.699223899054637,-6.5770956949015105,-7.993696744746519,8.12040710568985,-4.950053826529979,1.5784878163502534,-2.0357392743294307,-5.716559503230082,-1.0223519530393812
-8.628024805783703,0.10693733277476136,-5.779979210857777,4.53973162832607,6.969276109335578,-5.547632374126969,5.457758980158381,-1.5228073013100123,8.2690901291522,-9.43648747570498,-4.720283501710352,-3.8736542072151745,7.330853278564328,-0.9756448181039228,-0.37849299186569163,-0.620120054541744,-4.651142794252808,4.582048074870686
-8.309941018879817,-0.18140515808040636,-1.8127559489304552,5.545654104254567,6.777474552488808,-1.707024734900842,9.371022922153834,-1.1670702093528897,7.05363245699319,-4.698054753970407,-1.8864490818323745,-5.227576642765781,7.127880741326782,6.026130426663015,2.548254595650227,-2.427863233255467,2.864831534094015,0.7126217879349204
-10.332077478846513,3.4334349819579395,0.8864509134600116,4.892324623971142,8.539744953690443,-1.967280471615819,15.82261251187908,-3.643731251414807,3.397552758258958,4.148904845930861,-2.8608543833997437,-5.805470180188301,9.56214621062334,5.8011973797927965,6.061768089376103,-2.6737659372579854,5.014818925376973,2.1156115975130096
-18.50292208251512,-0.4746727386789633,-1.7839491066010098,7.071859605023722,3.662103263103819,-3.78934228985184,12.800575884379807,-4.167585444087065,-0.45304084216308027,-4.477932411348702,-4.225511663399175,-4.533199405802715,6.625555539381724,-2.822349079326357,2.8376940549389538,1.8648508985455101,-5.427813136535059,3.029133863742909
-15.24391601147208,2.4497825043427275,-4.45274601874843,8.27546602942953,5.425896497321872,-6.587308051273567,14.953523057539378,-5.180101319888559,7.9043631952437075,-5.187519370288097,-7.445320643436331,-4.242936677911271,12.087687030083163,-5.7818070406850905,1.8605206465635655,0.445609547732409,-6.978323334015,1.011667511053332
-10.418323860178825,7.128419155728265,-2.334676613971038,3.2294833701549592,6.409028040494598,-8.603383056184391,13.785178471287754,-3.946887948907343,10.110086658321507,-2.472079483838451,-5.879589049226117,-4.153516073468716,10.030162411407714,-4.83502893291383,3.0325651576612893,-0.583763129469757,-5.49613937628838,3.680438119836386
-14.182381939097986,10.631323840449149,-3.0470110421643724,2.9690924145110813,9.150488050889956,-3.685174586881846,14.178375812553524,-3.885992815044649,4.601580983682725,-2.97230862459665,-1.7744793737103546,-3.483769711624353,8.070115245700235,2.0687842393592533,8.209298643953499,-2.590501667501292,-1.4695150743697916,7.129057378349044
-16.965461611068847,11.591104912953273,-4.050614861385654,-2.2716258692226603,5.739885776127724,-3.9422875890304887,11.738462319140101,-4.8997855633496386,1.3399092432608155,0.7338097669358525,-5.286431455771899,-8.483884983096477,4.840163496604742,0.671588421032276,9.871048055559783,-6.746525030314458,-1.8321169202784473,4.228431017724198
-9.587563827768024,16.648303297826754,-7.786898781394505,-4.484882856664004,3.110804254808955,-3.7106185308740347,16.035840951911407,0.3360361032440933,5.500903496550597,1.0289981090185396,-2.8410546564364925,-8.899889117081504,5.808963467431987,-0.530407444345865,13.584276458181526,-3.090769702182619,2.107625160996551,5.525515225737772
-10.798801919704871,17.794796771212805,-2.4392438791168685,-5.721638086281686,2.3373594141964285,0.13483467631377533,16.81639232889856,6.840898373325041,3.5101079073676287,-1.207799960215734,4.585038024600805,-8.052233085593617,6.874709495439982,4.810534843403191,10.462100304775106,3.9821401491101356,3.4160409431324648,7.406893386655322
-6.047998602881243,16.495261771508865,1.6406613058032518,-3.6382535984925184,2.7358251643856333,-0.8045393869615705,11.443299729537763,11.196750403462454,7.281734984306623,3.007949444199454,3.9056734697160618,-5.745687022235268,3.544961563930059,3.5106049898744036,10.66089429612137,6.854875060493086,3.2650507281377075,10.458431253654949
-9.007062342553287,13.530768424595134,1.034827307726976,-3.5083958531193815,5.77094301311255,-1.645899626137357,8.02209680749177,12.231668476219955,3.5342984071457066,4.008149643584957,1.0779375647180172,-6.5702480787518835,0.21413065575502088,5.823849861042403,11.446210350767668,6.894617803116514,4.193781252950867,8.82058330138684
-11.374909000300015,11.53788179061976,0.9191452921742311,1.8944588579255477,5.973752242840009,0.05215143170960124,8.408220837906455,9.750305356620844,2.717140795904478,4.624892487706208,-1.7497359763086244,-2.615720366836304,-3.31328934445785,7.843943524316196,14.282882127147223,5.370893562066117,8.546041823980499,7.278497279610156
-17.74127514401274,9.930459383337078,1.391303411067176,7.1013275727697796,3.930069360047007,-4.890259908767951,7.2304353500606515,10.686327901135588,2.974727560138436,0.07296387443127905,-0.4757589250315557,-1.8901172863316997,-6.353888160494499,3.0278005803862644,14.385646829046266,5.897013453532166,6.165449037216957,8.566508026331036
-19.023812812734747,8.610645304958815,0.009888021177716366,5.666649593900548,0.5186814388417869,-10.223084466598898,5.562913782976766,9.082580311756464,6.748462684005936,-1.7373463124850215,-3.4987340613958633,-6.249012202778566,-5.782815240256099,-5.0112598820016,10.68023470274499,5.054931486483905,-1.8737423893285206,4.578940888368587
-19.421625880359763,7.675897037904632,-2.346151932499247,5.891182768533746,3.7473879434734947,-13.114294005769388,3.991539973508556,7.673444691531279,5.05379252620968,0.951811939251769,-4.373287916797956,-9.833014555040966,0.8411726013064857,-5.628561972950034,6.779946444179872,0.30552153020293904,-1.8017735336952017,0.6868890507176184
-18.934534659588913,9.17682478170218,3.0147511048151547,2.8918899278329118,5.998747289605577,-8.388074542695998,1.246699833843424,8.41204023811104,5.8986081636109144,4.917741641876028,-2.7088271462196936,-11.958591504463756,8.439669413152942,-2.24214487350311,3.8566381772664284,-2.7847498980566057,-0.45467067665536653,-1.8401796522407885
-19.710829103692625,11.843673501891521,5.936220215005619,2.0397966403130425,1.022523642794555,-11.865026216916524,3.090135744775787,12.95851193348093,2.8374530307954147,6.840085804405357,-1.825752747896133,-7.742924833745942,5.781828510218856,-4.227170406576568,3.1798227082050983,0.47166429228330947,-2.6176496085650385,1.685223291091972
-21.26203963659455,9.816772326578054,7.101886984677192,0.5026784467115846,-2.6852026674632627,-12.70518608306848,7.568627836264991,13.500202961929515,-0.7116998199539002,2.1289345412676095,-0.16157891476711206,-5.096357685134195,1.4613213906512978,-6.993744051864402,8.362797561016304,2.8480671478558954,-4.4820470592819195,5.1105770468379745
-19.974648553319174,6.70924914684808,5.144569782786354,0.13588268018767913,-1.218267679583409,-7.490579401456344,9.310934595844133,11.111309849345123,4.9192158625608755,-3.3562461200108658,-4.650043417766948,-4.897873268241031,1.0444265844249507,-2.826924105389032,10.909299450581742,2.5865954345286486,-8.098666258331978,8.338140517496248
-13.895319392264609,8.966304309884165,0.35726786286046086,0.35331355851324986,4.153629775223163,-4.326844708353674,6.656807942033075,6.280081665384078,9.86671609887085,-3.365361481320205,-5.330095154474992,-5.389693124044318,5.116874892612358,-0.5159274525030001,8.963790404170217,-0.8010631699955828,-5.654880792829838,9.02404446848546
-15.03577230244485,10.142314481221417,-2.7677374153442993,2.6196883530295647,7.961505490342797,-5.655471538219303,2.3405974499232816,3.987022508825634,4.267314674392043,-0.43751575487470973,-3.2760078141158218,-5.595297988902649,4.693935643651677,-0.5490635786278493,5.455960715262812,-0.9671788694162884,-3.2054654824951108,8.730729196279718
-15.09491736849245,9.162830077260178,-2.08195119629666,-0.09649842362205341,4.443399505529396,-11.867136797303107,2.7099884761699133,6.282903257323767,0.2305146394204285,-0.6274941037165291,-2.4917874320428246,-5.22177001477602,-2.6660561403049936,-6.832663392632413,7.905413481589235,3.1624604930667366,-6.2192508615908135,9.801896884887853
-16.514016092169253,6.027634727629401,-1.19868605443531,-1.7406143239107852,7.661870592419562,-17.49305288827206,6.885993050978458,4.4761423582715425,-1.950769809022141,-1.8844915735703154,-2.098553165476565,-7.491867194781864,-2.217006024188633,-8.526739568256186,10.159667219305941,2.1150314865356874,-7.762536645831467,9.600704980419195
-17.6327050120084,4.740477509758189,-4.024228567464072,-4.949564893335296,4.042334565082509,-18.529298212501175,8.716104729309235,2.375347985112006,-6.671198326316249,-2.157705533089006,-6.295626775300198,-6.741490328310014,-5.775727697743555,-8.951677633163005,10.363180070423326,0.9687143274858625,-7.542351084363727,6.369230644141651
-18.060171535124297,5.789426990368337,-4.894407583818378,-3.864031283007339,1.6902230694463345,-15.171233888381371,8.297911976723181,1.542999280717483,-4.262718342647101,-6.915981673576656,-7.563401310533879,-2.287082084790846,-0.5492870983605389,-15.138857783222926,8.515906323014885,3.5321389970750503,-10.441584883908023,3.3300958850050284
-18.870469545259215,6.244528999300465,-6.934249390835723,-4.050649115416611,0.41005738114909374,-7.907194143406949,3.092243867514079,0.3188689612331719,-4.295854479861652,-6.88184926681722,-7.562097487267882,-4.871037818231994,0.4736037212034452,-9.021621552434793,3.934195193248458,0.5277987044739281,-7.573389649605526,-1.9582260670468772
-17.03602834641995,9.425922938260545,-7.702289937216959,-4.728299657314587,4.693927865382753,-5.038132305891289,7.259402684495844,-4.324479615447444,-1.7901304937802212,-1.9576675093431586,-9.221486727807115,-7.0714102717289125,0.7107303761766461,1.5873878215592834,3.7470142450476587,-3.4544138142412573,0.378622192269253,-0.9019371475988462
-13.82621845026238,8.594999213966393,-3.9758041238027113,-4.236943146518925,3.9946304908468293,-4.220307922655003,6.248314808220547,-0.4728498403898942,-2.507424001454288,3.2666305126976924,-5.900881997137668,-8.302291020692497,0.06419720446282895,5.555163354416392,2.778454950704485,-2.848027973557901,8.629210810927303,-6.196626393348659
-9.631491487997206,13.224331373381466,2.878018463539414,-8.63149980410216,1.0464114925670467,-7.504578746469704,4.941796660576964,4.549379103834066,1.3648107813211086,10.939493407662743,-1.116001304493465,-13.348944339638592,-1.9545250059911297,2.0027601778576,5.2277510321418665,-2.242977693495748,12.783764985301591,-7.002367167991604
-6.990770297451228,14.426836134300578,4.948918724763999,-14.298771970714263,-2.979009106050013,-11.179995769208915,10.957081197501589,6.5428747408492995,0.45135486362804234,13.150620162206657,2.886987897862758,-18.402750332768576,-4.466759651777409,-0.9642550990458406,8.751066849663466,0.020898964256873237,13.135242638152972,1.5636453656972242
-6.782797203335078,15.815619311215453,2.139255819117043,-25.633494954205894,-3.101261761913751,-8.508219954731365,8.571201349757292,7.070110290280392,1.4905138338550705,11.560165897694809,-1.0209689101939063,-26.491127848535058,-6.496174893083639,-1.4904118681407486,10.613935063060296,1.404481621562718,12.027411821700849,2.313567171986781
-5.198744220917314,16.413871335679836,-2.328248908093322,-41.26859555485672,-0.6877323628671226,-11.891829261044215,3.4482350659494276,8.084188966875416,7.118965618024414,7.5353101064699874,-7.957024269207411,-39.07896880344546,-5.308602029075749,-3.189073617355346,9.644411468035376,-2.1938734126837676,9.753225603421722,-2.70187053074128
-2.140778857719148,14.658834649736749,-6.20745251802985,-54.27050743432781,1.6246402831375364,-12.54167197557282,-0.9938677399963858,3.432620596381825,9.524007338135004,2.443229864834941,-14.600854616298648,-45.32628674698256,-1.099606983154044,-6.743872295040534,3.9869470083484657,-4.62174656619579,6.703292323304643,-8.209230604779822
0.5357750578570162,19.04649743211518,-5.299058300403267,-54.97124547445413,11.74595102815199,-11.532028094163387,-5.243466708705414,-2.294734528310853,16.02988319667083,0.9714629924783473,-15.483666157470532,-42.20571131653523,6.716503862747617,-1.3148271944308112,-3.52643647935402,-9.199518491981562,4.830741672575009,-13.720304636777309
-3.0283753185045175,24.889051499743346,-2.337470152723931,-37.51147426980617,15.808616421699766,-7.202760860423791,-9.984236846863979,-2.457204509001044,20.87469754606408,2.2410536961107823,-15.293070124344228,-25.810949359093428,13.74487703973068,2.2580233817919977,-9.868402273235098,-9.97008394286678,6.284016310451309,-16.500755600851242
-5.508729735339112,24.275981860258806,1.60308852450513,-16.247008384315524,12.738214744325404,-2.288331815539002,-8.868495693912541,2.6521820762355155,21.714572944125955,2.150338330007295,-7.876668646095634,-11.864910362899913,14.516421637420695,3.5840186091632593,-7.714673641139128,-6.152197294324619,6.473172294634859,-13.327957135932255
-8.662959750306888,19.64849265393982,2.909291973607329,-1.72500820014616,6.343209082704267,-0.10914895465455743,-6.974516146284655,9.420032569538531,11.811030918191891,1.9688265259880495,-1.8283826705509445,0.21834190349350635,9.03087793451871,0.9052885663008636,-1.6552186648181175,0.39862871531396227,6.277096580406303,-4.983249549537829
-11.80729554779474,12.666524845229501,4.9991705847228145,0.9762017341375611,4.5336854373930935,0.9949244377424122,-5.181287974759679,8.275831261038885,1.027406074055488,-0.06136446033301013,3.1447211421062002,2.72383886049489,3.9287103238935472,-1.3835997926005266,2.157470252448703,3.920572377685839,6.6723312960588155,-0.7441958243419207
-15.918151180003768,9.677589742540096,6.896155271079602,-1.5027718624893245,5.160980433924751,-3.3707548719649933,-2.121672568509112,7.715743475241007,-8.780904436432566,-4.233253704595166,9.093415380200243,3.0735647319825965,1.4557827227005191,-2.2084434491151983,2.5514450116964422,5.585512183423734,4.82676412177541,3.3930944702831924
-14.940585851763457,12.048652800585256,5.865836424892639,-4.962763260498647,8.224898873205998,-5.686585905420475,-1.7997066086654785,4.712320322492677,-7.848229287891616,-1.4647196636789221,4.689362149511589,2.6347269153033146,3.5649837059271627,-1.3739598348251183,0.11259642967088723,3.147306380854609,4.939637430837372,1.4714230613398218
-5.163447133548113,13.92000567651101,-0.142592606026118,-6.571812515817868,12.455692861128423,-1.7533309587072772,-0.6997803138066967,1.804603238420781,-1.0575609680702796,-0.25203645536520014,1.0655036951809773,2.286247149402076,10.060729492731074,2.2917102135077174,-1.2528218829716673,0.7075670037839141,5.741357538945962,1.4986493419189855
0.8155720362224965,15.877349931413631,-2.828219270301643,-5.744085069168147,11.603067719236014,3.057789003507523,-2.044667444739985,4.559022756904439,6.512789747488324,2.2368172211142,-3.63369727678373,3.004707936376306,13.813734729581787,5.3705112480197155,-5.841806821886639,3.832772879209919,9.86863774587515,-4.826209036015344
-0.5190543775162624,18.11575530544445,1.6176116609240772,-8.43681225114778,9.280158523622658,6.109969579663986,-2.8070458109938246,5.45587140487088,11.054059881505655,7.564309605259253,-5.111340539572465,-2.7295286094591162,20.19490282913487,8.155381103564848,-11.603602472235213,1.2922722367169772,12.633858209108391,-12.913311824102303
-1.159242169262579,13.11532929526043,3.0384972758969946,-10.841448619252123,3.142976242422771,5.645325842690301,-2.010405127951165,5.5693220317446475,10.417665199444361,4.011453836421629,-6.004225531261862,-4.271757721932508,15.727191438993973,7.521235850098746,-10.823304254134422,-0.07790404603293488,8.177503563751799,-14.071192754390776
0.45767875462369645,15.036197027012044,2.1180424929903383,-13.251070999336278,6.668083828937458,8.402196045301478,-0.7290469625870672,8.12201697985456,10.658268783749314,6.422165929244821,-5.8241041280665,-6.895483309608924,15.351958725195502,10.792368875974711,-5.649439570501661,1.968361860857783,9.195026423681238,-10.253078265812814
5.308428617191524,19.776485634168697,3.8367914470659006,-14.005598540648664,9.698869249542849,10.864855488824194,-5.896736545076978,11.063079854601362,14.900798644799442,16.16359131653324,-7.403091502006994,-8.745191301519325,15.455590425178505,17.18748024667946,-5.2618933106002075,-1.6511093133452728,10.90114126555067,-7.123187921880441
3.822688109712983,18.156119274318023,4.972036727801292,-9.198819441368164,12.62575457785042,7.564424411919724,-6.673529601892829,10.77910967189467,17.773956522095062,13.899432080191882,-5.663026014657654,-8.258337917136316,17.79564624515575,20.554093415865125,-7.316937193109402,-6.737043408117225,12.807500477170285,-8.099612232187294
4.203842865258179,18.182783982451753,1.9104385675284488,-7.327051917971346,17.889972649850513,1.0399574633820148,-4.231383045524628,11.176350715021005,21.816718219401594,10.469629566741993,-5.584493413749746,-9.731840875098072,17.684273370196678,18.060094087523844,-4.294982846236216,-5.574486828731888,12.277283507958305,-6.346377933249988
-0.9699638348478681,18.196049238224845,0.41379883258317207,-7.120837144783876,16.018510273448985,-3.1421010646014715,-3.3555892708403654,10.789870862392434,13.94281822632231,6.948348676192303,-3.944829439621958,-6.4272903716877785,15.609477611198125,13.22112015348698,-6.157177492410546,-2.362729471850144,9.505741618006475,-2.2541834474887685
-1.9328305396958378,12.824490223826217,-0.7874393418650558,-9.361525764062508,13.45656422023296,0.9753237614010883,-8.831439719345735,7.568790882737145,9.386732779489343,2.9448857821180265,-3.9667808597524883,-7.622143123623564,15.57494189662652,11.79893660455695,-10.755108659997658,-3.4495306961341123,7.324882402285465,-4.416976260304664
-3.079232378197913,17.009492011421322,2.8966301251599726,-6.822530606857809,16.45401415799515,5.188934217563057,-8.842409006113641,9.618635881071931,10.199140305940332,7.834308858129774,-2.7206570056863524,-5.308433006829773,19.533535162381426,13.598185359449621,-9.006664385806015,-1.7058808854807916,9.25031499476995,-1.994812437714272
-5.776258959418031,18.93421893319249,7.755003919237648,-2.238350835454529,15.733157507753022,7.54552759422015,-5.537027535037394,11.17753125743373,12.082963238446718,7.163194882294771,3.797467723961022,-4.369012787116635,23.57866056782825,10.806203686269486,-5.111185400541201,-0.3544900291577,8.25060996154402,-0.7495627154586746
-4.066673971603877,19.379683977837182,7.049287277334557,2.6330949937168313,17.1532399095442,15.174070642722231,1.0846456708416723,11.268831108388214,14.549772998247102,4.93543133083439,6.505381526940118,-0.9951935787087578,24.194350949987776,17.29034625090417,0.6382971571946688,2.5577929734407148,10.08749920502266,2.0531267381263536
2.8308939142130534,19.029242696742948,8.299113972410735,8.377677332411434,17.296020253327168,15.476666218389884,9.948317590145374,16.337877247930074,20.236185824892573,0.36967403998274584,10.383586939414341,7.547481111516461,21.77094755812981,20.843350198707014,9.02298729691233,7.421596256076134,10.854595744960399,10.710134793304775
3.7835668080770484,18.27327785187222,11.60212798385676,10.893698390584923,18.602720469664945,14.89867610149643,13.045996839500773,18.669638676371765,20.255201769053514,2.2550350225485047,13.08825572961149,8.9541785132051,23.534832352285115,22.63706218329176,11.448946000618399,7.596191550873293,12.602632155617101,12.428237013587452
3.7719888539926743,16.42793762690707,9.926956700806485,12.231901332406785,13.748787180345394,14.807259171508637,12.330782762634236,15.23665546955689,15.290276579507129,3.169439088357514,13.545110015520738,10.353958830754891,20.012912729109015,22.769092842342715,9.771612490534775,3.5698665220952384,12.98774012817365,12.676207608059968
8.26508764089586,17.106311471213367,9.230705375564536,12.196904666407882,14.159951895487952,14.51876134305385,7.6073056997640185,17.855443799001375,16.57189912533957,6.433160140332465,15.95338959817779,7.840560290258598,21.654274178248723,19.286239416858244,9.850393400800009,3.3505557414388054,14.646593543618254,9.20786057825149
8.571413015706103,19.722206848033025,7.95083168138366,11.667565454427608,19.054727469709544,9.736191718598693,6.981105231285095,17.150789869943083,17.752162260713373,6.284299944674557,16.211426072605192,7.664128721583451,24.35699812247612,15.899447247375448,9.243787542813903,3.422581376911576,14.55171481983509,11.593597772026575
6.937176134012116,18.90420293778449,5.3060536133261,-0.3915000801902817,19.643691011768322,5.147071064367622,5.76455835887476,12.243702976521867,17.073069864965078,2.1368182103286113,12.561336496213345,-1.0152919665491495,22.65195695037172,9.77659228641808,7.658764125097836,2.7117100496876514,8.992019683779997,11.141824949415005
13.323543871961348,22.171701751253952,6.667525186903966,-19.78106474509714,16.024273015805367,3.876395876079418,6.594374027147397,10.751415558353312,18.63608749671127,9.225226284357362,10.76488361263868,-16.244491328660562,18.003722046902023,4.823933791237814,10.857072385958872,3.561730253331611,4.705799575312174,10.977535776407615
8.003724191305135,20.149317539417783,6.371074166333575,-29.215760611911,12.88381688620678,7.877269342369594,7.712664361663159,2.3221356827912203,14.140145023933515,7.431931340575211,4.669585563718082,-20.933306643057637,13.927676910093515,9.244670857449993,8.096303650542334,-0.4727651450081173,0.521066531704447,4.166978067257079
5.724101250816937,22.70024080132951,5.393253023845541,-26.93779682766002,17.83939745001726,10.0206243980032,7.752173991875713,-3.766722939000447,14.718059949060414,3.202243650224962,4.822433752507123,-15.862939103437926,18.236145302422017,9.269010361212745,9.142174874572955,-4.801857637262841,-1.6091221440994072,5.944708065961173
8.340231281162078,25.23431809725485,7.933318030388059,-12.654244988729097,23.078165909254658,13.919744977957494,8.56835457280145,-4.29252654415299,21.15092671009858,-1.901415718761804,9.172570806091937,0.43154062266856386,26.338917819405857,11.537626220948091,10.869581549977342,-7.4723866744193,-3.833336620082221,13.478601546685985
11.848199719016677,26.091129959166693,13.502952301340885,7.287100673245423,22.447454467262936,12.836194155042087,9.868189136638353,2.0142038328980334,26.2119024910569,1.4959913414350368,14.106615217415943,16.914873602881837,28.76289801663017,9.702712313188545,10.153419438348775,-1.4529881762724544,1.7585978190144296,15.147339166337606
10.486246138825168,23.805574337647897,20.53960218021782,21.16727395047399,22.490101070450585,10.285597319008037,10.089111815027437,9.684563158746077,21.59990682276279,5.484080788734401,24.116777626836665,24.797931368849582,25.996079051620097,6.400974049207005,13.048412181233578,7.1039080812272974,5.107829385772945,23.060433972144597
8.063061956755796,18.572732880029818,21.42593249230796,29.474529919297538,20.66677346786527,10.760156875711603,11.574868129339393,9.733967890666118,17.08053870543314,3.3243593437128736,27.874714498234784,29.256644701027298,20.870240098936577,6.026955652246904,19.945134838529015,5.893435773927899,4.944700621975155,28.3309864620992
1.7466054175888441,16.544811677825376,20.654166214249948,29.572079774663898,22.641389331091098,12.501979491807273,11.591002962919626,10.756227912258975,10.114519485561596,4.098885537207205,27.821823394667973,26.482434666906585,22.662571587509138,11.41267704227311,20.00352274268443,3.41182832567044,9.17937939327345,29.689402493405876
3.841777497596591,10.983197606140124,19.200846059425384,29.174859009251747,21.968306425505595,16.878219165592046,9.453875658505016,10.602801960253743,7.830684451645683,2.631685775007117,26.790132597593484,25.94817734818102,22.68124032288668,16.600961116970907,20.64550906592074,-1.0245072958596964,12.928867392904547,28.991137288665648
11.125891354423187,10.774518634648839,17.065935733510642,26.52500621065358,21.967656526312304,18.3223300128396,8.093183930080867,11.129116454540785,15.893000526458309,4.000847140979125,24.877253446191926,20.720250819618364,27.17604807615451,17.490127480118918,15.523286103748424,-0.6771747361840166,15.314131481939768,23.892364983705242
15.493365856966859,11.23097971998946,10.733718707155182,21.036556787982857,18.04929458311821,14.588129004467511,7.704210825792959,7.54987189433853,20.043253451799497,10.257064767272709,15.14943980083166,13.044863052199897,27.16219004821137,15.83795984303625,10.300948724791395,-5.4095923082555455,15.553794122118699,13.611785360040322
21.143487706078687,5.809291819200664,10.555875980997294,18.080672296187778,14.99821885893091,15.148361644905723,4.478274180179883,4.357254574377669,21.648465272812572,9.778948189201081,12.938910119839852,11.223004220618169,22.639374596644593,17.21089354056503,7.224571485934046,-8.092730364681294,16.7727852822862,8.891713409005455
20.55660721898196,2.810145652647204,12.430741469150545,13.067428856435274,19.8455560389035,13.069272842045418,1.052104884873118,3.5043501036958773,20.610789890750922,7.4492630794192936,15.315885341823272,5.4889848852264755,25.814528838250496,14.089226549459765,6.098786094090059,-8.531257612212343,14.08809818557665,6.704724710483319
13.830370738609787,2.6239584528125848,15.186379770595126,11.36799621218477,23.60656396739275,5.714047850004577,-0.13287936357762753,2.549646420240088,21.031662072081392,8.44374641780199,12.319229045556746,1.2140676387646883,30.53492616909528,11.648762951025645,1.1617337846294573,-11.608044030618702,14.530968345207558,-0.37120143562974217
14.246211687229529,0.36763315062451696,11.01012766491752,8.685432032914276,22.179388184750827,3.6296666581071766,-2.983011614244732,-1.5343142653018802,27.989092109393766,5.340284827900234,5.023129422908171,-4.043101824516347,32.21036544199741,12.623863278982805,-3.9733003727727123,-19.56919938482242,16.050459485468235,-7.74618158575699
17.116531331760278,0.14258863920362153,10.546633360053091,1.8946911442783971,18.68884784203236,8.57391249841117,-4.959211625022694,-3.376423297567076,28.787379804964942,10.736599819918604,0.5565545818347575,-10.380089731425658,31.524165286866506,16.526182670883934,-8.232131705472185,-20.891090834349008,17.962841790748787,-14.346008753333027
16.874803181309098,3.315831161190096,6.178546234861704,1.1521853824482395,15.283185685276107,5.50743719489424,-5.377893695931169,-5.808821320662377,26.746692654149626,11.058136743360683,1.7515321439606932,-12.034995581667467,29.647935045326207,13.101602354294828,-9.173366266524935,-23.972263269442,16.65465139696136,-13.62764023483312
14.10693015385223,0.316704341382648,3.3746514609867138,3.821167055797913,11.376228893444631,3.317038843353179,-3.5554695285272384,-8.343284862526808,23.9176459417411,5.718818622815533,0.11179200827349156,-8.128803560819236,24.23760763312648,9.869712444392347,-6.5040794146042025,-24.80872731709175,8.024133956019423,-9.3020936923601
12.523854512064275,0.12952691324491195,6.5294977220535175,0.13587795270955105,12.045954894828018,-0.3411245953056703,-7.988175721875132,-8.53843461836592,24.20635053319983,3.5077098148267556,-0.3587450006097681,-8.036558247356307,28.57435682209786,0.48270422035377614,-11.357301063473802,-22.52154001961563,6.329188547080623,-11.721110691028798
11.34425401600911,-2.421750022778787,9.392938720973566,3.5731066051126383,10.846729270471618,-4.490531970040534,-14.672055385716545,-1.5114466726484164,20.874222249406802,5.401253787288037,3.8555534837796177,-8.242480201172913,30.548346602908246,-9.297670913803628,-14.35793459460524,-16.720045852350534,6.393822310252819,-12.876775148528202
13.88842294203116,-3.2356851609634365,9.523478762767889,4.171788582948521,12.36824389701986,-5.322587595462951,-11.888187332652326,-4.3524874579368955,20.17115509822207,3.489038023248341,6.895177072026197,-6.2073650667307785,27.913175602384662,-7.94785445280997,-12.088004374845776,-17.072335263676713,10.366371314400181,-12.866760840424368
12.73429547121382,-3.289034585848963,6.7257489560994905,10.135203874699853,14.559466154993562,0.2877001480195318,-5.007752000657773,-3.9754804461768574,16.62811314237571,0.8959730557187875,9.248368836476047,-0.46624131842809113,28.48119279713071,-2.1086270385070165,-7.867917619903188,-12.640714282455756,12.484893167070187,-9.542610875676651
13.057645474912073,-5.609361623462904,10.863126469865794,14.041398881525563,13.123237411069944,7.94567704886232,1.67230828328963,-1.9430087989133646,14.737148937989325,-0.034294041747978454,13.551842541398273,4.09811176517562,30.20131876480695,0.8956271098517927,-1.9906903253494121,-8.308041604912788,15.288351950954592,-4.369202037791911
13.588827082823338,-4.728000702492174,13.244016719887654,15.89041317355602,10.793758510044311,10.815245595608328,1.6089262070770096,3.600366631106374,17.818421290682753,3.7254864950706974,11.992934222659366,4.4584142653330865,29.557611582000973,1.1625127109093683,-0.02285512557361724,-3.878972223411002,15.944534680061137,-0.9598786179575094
13.937105091402255,-4.649081336841055,15.919175459985524,14.803371663691152,12.649018429764553,7.91977293300444,0.17328186101800513,7.869360137785904,18.449736857766748,4.16723835290191,15.899897509441477,1.4936981580950555,28.112335665809503,-3.163519549023805,3.016092659979866,0.6465245848987049,15.722852171495406,2.1502204181665308
15.07894356545745,-3.224289501397581,14.689262049607084,3.0653625474360506,10.485556043295382,-0.25250739878442197,-4.978402962996953,10.961574570172177,15.068366111336015,1.1931607768265762,15.897545709782921,-2.5497939368791127,20.787033215816148,-9.934050784678682,-2.0537131778343864,7.416950998476118,8.080094829918984,0.5664945967294219
17.795481899822676,-0.844406303371578,10.140164144090473,-20.007163506294937,2.4476660738322913,-5.791373268727536,-12.771882328694934,7.115149989991233,13.338251843383267,1.1508625176328788,9.15376137441245,-16.55879950122261,11.878393861658694,-22.176521402446063,-8.103294764276118,9.400982771559153,0.1451355626329196,-13.621332239597745
23.844427608094943,5.2248411459284565,4.420292327642368,-39.27719664983355,-0.6248476069474069,-6.15777786503458,-21.156329592393643,-0.9355484537566667,13.552160834681409,3.844882443360449,4.06706789153433,-27.2517467377888,6.366716060948294,-25.339977566784523,-16.695211566194452,6.793969553994547,-2.6133353350321347,-24.49504463172035
33.22563950940048,5.412856988833018,-1.6891520305346575,-40.877272288838306,1.7561015394200847,-10.140971795361999,-24.369920614079266,-4.792004913092155,11.998892366915449,3.4156092510830884,3.567155993961788,-22.909585433148976,0.8337375409456058,-22.842488532073926,-21.579402259313095,6.041357467425785,-2.148616759034317,-26.488144492874778
41.44671091952673,10.266546547167993,-0.27795332186029675,-24.221373030940562,4.51211217708364,-7.584603596262312,-17.920378442217803,4.725560228823707,11.705629791247917,6.601278923935512,13.80642270448908,-4.899400305832329,4.361391965777992,-19.664646224516567,-15.236253270232973,14.272197896498014,3.3946434088565773,-14.913050258024146
43.331621436953526,15.195872332657672,4.4545435576701635,1.3154345612272653,10.279747947417095,-1.1254852321820916,-13.526607496593979,7.792579692591606,18.141000118398676,11.74156065303058,18.183012533624584,16.23189858339647,10.015749095129781,-15.708838842633849,-8.408146759937711,17.521471418775118,7.570888613382979,-1.7816507332401867
41.321644782340684,12.974044986713078,9.773859150668056,15.811053605083082,14.273587940811982,8.259753489707556,-10.602633393619032,7.534057133934864,17.339740386600884,17.762068983103347,21.87274705942766,22.906046095609934,13.499643431168582,-8.826640736217845,-2.0716891631393466,16.8634516391261,8.03618671308297,8.120841287314
32.77984251641647,9.265104166693558,12.652540180224571,17.312417090353048,10.536322260133762,12.465468350602828,-12.371130018999697,8.539864391305477,9.39930269134421,21.049316182683494,19.211439800335402,22.349845279256595,13.152674500301277,-3.9986399181400003,-6.090339517008803,16.106829917993394,7.524807471974658,7.177141833253545
22.002966021716155,2.115793323478756,11.137367977296364,14.120526478903422,10.396065103483856,9.440795682418496,-15.51169902604147,6.513021110576453,0.5695773994578026,13.399899758406555,15.86320330949405,19.5439733339634,12.392650640350167,-7.67028907825023,-9.624114163429752,15.739935471871974,6.524892140664473,-1.1947050970922124
16.80343555057413,-7.399746414274113,5.325935949315342,7.309716292400113,8.383803654636841,9.146774561043898,-21.39150990753265,4.383221948945164,-4.9503568543513765,4.677098227787692,6.945115470521146,15.367484533980083,6.043505667292218,-11.15008970401362,-10.426908756486682,16.05578305040742,0.934667786059082,-1.0764613889714534
10.637973739461597,-10.980693203474402,2.054221176217821,5.766946169038157,6.452517838786223,3.2824474099917356,-20.83069249303002,2.638720383756698,-9.016200343149642,2.3027457540231966,2.5158897644307423,11.676012705855817,2.308290695265539,-10.62942875499119,-11.819108285485495,11.683239484823075,2.5705728150249474,-6.921442685830448
12.979162757221577,-11.556857161863352,-0.4356807200533819,-0.37110437620943415,1.8676207487728522,2.4924590419908808,-19.591007087595557,0.9865103787804559,-11.432839645749016,5.495425544463593,0.6223390849811707,5.930595515311407,0.30789419557679665,-10.600599515504234,-9.406134385243828,5.454422787228339,3.424524179200798,-11.991231549451019
20.701726413405414,-8.542361397059839,-2.632123748906981,-4.658907161820219,2.8321972725049567,0.6243238184672291,-18.55132319018262,-0.67109612949799,-7.805877193930151,12.008853988630598,-4.204400773688768,4.8697580845132,0.9210514445577118,-10.28237566520186,-10.707651075348906,4.3030770673941445,5.9378169144794315,-12.965427929001063
25.21154516075759,-9.749886095369293,-5.121119839838695,-14.908957922310705,4.951488925981954,-1.0524547446512873,-17.125640369392798,-8.779537735702574,-2.627768282907846,15.006833043532305,-10.49949282581796,-6.4479906316664355,5.124163234461364,-5.475508293809289,-17.38385602855422,-4.2709428357520665,8.059489996906647,-22.93012855504784
30.707653477064596,-9.124703564158532,-5.558948824954321,-24.480400626698483,5.100293160435224,-1.4636876558332865,-20.00147230822172,-12.205857146010427,1.7575037307104235,19.665066128652853,-12.989446482189305,-16.88952291602494,6.569307916651376,-5.164541679024262,-20.64556676039264,-9.329923426753282,7.445609266698233,-27.13897061462871
34.064745376826224,-9.79190470080656,-5.703515656332799,-32.49417960810264,-1.2137954131982287,-2.660232600001497,-21.319292880861237,-10.754761213824784,6.228662735404043,18.95203864530232,-15.580596893358237,-23.524959075873596,-0.8961123134276727,-6.224458546753523,-17.270089990953032,-11.557421256639275,5.2679193929223365,-24.908302232256133
36.16147225312045,-12.825758675007334,-7.8986716893083155,-30.84456004940441,-3.736857692371691,-5.325737840162555,-18.539935235833212,-8.430236786800423,7.758124998954413,15.699667324996096,-16.808101575677714,-22.057208908987633,-6.529897557517344,-7.190421388463523,-12.628611571613977,-9.683837037460034,2.0145611482260115,-24.343664468340165
35.923320721359474,-17.445028209480895,-9.800696644438386,-32.812845773004064,-8.035522536898275,-10.241508267920194,-17.327478790571917,-11.09176486217399,8.00588046530797,10.982029233637007,-20.675949476149427,-22.44721012848026,-13.847869023348409,-9.722638522415362,-10.334476016486647,-12.791290895200282,-2.216955268691864,-22.71058552238859
40.47901759317406,-18.37621039910101,-8.089292663668715,-32.05112831773236,-8.348114800951201,-9.98559744089599,-14.947433399710665,-10.731424345310115,11.85462681817429,12.416269767747892,-18.980909920038773,-23.32760045333801,-12.498439569435506,-12.160953205099016,-10.875978130159766,-8.477199082059409,-1.1766815407400486,-25.38018229646245
39.867175187632256,-19.525620136148092,-9.600566618715561,-32.85618632390401,-10.338908576834257,-9.83156392296528,-15.208373592293523,-8.71643412587473,11.003269304946457,11.798980250459197,-18.754357506403647,-26.1630899402698,-16.83742076607431,-14.017099639949913,-7.514737914565483,-5.726021897263291,-8.439190005912476,-21.70769856272869
36.52892886848439,-21.576856921984273,-11.014220096595572,-32.591092257331375,-11.273605739636986,-6.068452925717824,-18.500849077359064,-16.57041492431329,9.846222042691384,6.883874073172276,-17.65252151366802,-27.730815009760686,-21.00546213995039,-14.998125540429431,-6.110221812375372,-10.299513174156745,-10.527858287362697,-23.80262778566633
38.764868478559094,-26.97134942742612,-9.791216231577526,-29.790804796926317,-11.640606818465532,-3.0909007870089114,-15.254316157957193,-18.179843785835338,8.187988184959877,2.8466528908937763,-12.355051476248768,-26.468091577119804,-22.46356625915761,-13.346210514702726,-2.951435692799171,-9.404455082491912,-9.8842748520434,-17.406869824443802
40.910517123739794,-26.333929431160623,-5.736303485887046,-20.64649015279523,-6.361814180802337,4.081600557872749,-12.793016276183312,-11.493909050095944,3.000999417906468,6.816173269866991,-4.81511248203752,-16.808266151988928,-20.528222346373518,-8.182451798884758,4.6960392144160235,-2.5525040182507683,-6.508583763583785,-7.403237834783132
44.23508760331271,-27.965469164326123,-4.806667455684776,-13.361209836420414,-6.8632811029937155,8.417658528567962,-12.777038051447839,-10.86829604795415,2.390672975762734,6.780374914661984,-2.259385104362385,-8.809921639336618,-25.25826035101365,-4.389751236789019,10.679769367656238,-3.122714453565298,-2.2564251492129532,-4.241032391210966
42.39047917853451,-26.78771977442807,3.7399803790256594,-6.469902325446412,-9.141130546061294,10.69850119026795,-10.811686333574041,-5.462989738887783,4.598997688148593,13.774424506611894,0.8786165892505222,-6.379201326486722,-25.423111907860854,1.2545838444696802,10.702820328422955,-1.2515976931708135,4.336925125028827,-2.5489964016170603
42.11471854027433,-25.828013989721036,7.989333434743232,-10.03111265399396,-13.29310298657319,3.502107914000018,-8.850015217079882,1.2063405934526719,3.9616563068024853,16.958155339869872,0.3996071290666068,-7.074493444603469,-29.030772223822062,-4.140278897093499,13.554396877841416,2.1819845469899475,3.8961832303758706,1.2862916605580743
39.794102243102834,-24.793310362670184,2.960785342352743,-34.20103679994299,-16.58485667175477,1.477108864056681,-10.505256533835972,-3.848771593159803,-1.084039623940571,11.936812063597415,-1.7432586508256036,-25.348973366161474,-31.979665227803963,-8.660103678379004,14.156306740639703,-2.97831376903447,-5.33662964264146,2.186718198066796
44.21745023432046,-22.023347918238773,-6.658153272871978,-66.86989917975916,-20.67664019697213,-4.068064120757764,-18.414060891079266,-15.550107323016553,2.5478863476550835,9.745562879244291,-13.16728171172936,-50.460117651897534,-32.02370015080018,-15.527602287017167,1.570895281193616,-12.728465375085953,-10.373172158214318,-19.183856707015625
49.72022740165887,-20.64308363374007,-17.254206149851363,-87.91998270017754,-18.146524176652886,-7.4692897867726735,-27.79108684648661,-30.870256514801927,6.4587119097407095,3.3528947802757516,-25.669206311533276,-60.23944546077665,-32.58092313781869,-15.367635862105985,-13.361814030096522,-22.966784294577064,-17.366018567718246,-38.215586180054686
58.2551929399316,-14.695293195488182,-19.647605005656928,-89.63609644719686,-16.807178352459022,-9.214882847719764,-33.362700485335694,-39.359817133767415,17.191353239621826,2.4267691515273455,-33.291901869099306,-52.05002223064874,-35.89747519138578,-13.551382115214361,-20.290084359730226,-29.00563715283595,-20.16286629032117,-45.43556934915816
70.50554610371925,-0.3712109758920583,-12.373542139250823,-58.0529473326266,-9.138998747294496,-4.129007381719932,-29.562290932309082,-32.327222714176045,31.229983710161523,12.04523453079106,-19.824172168232124,-23.743200416964115,-31.426320855268322,-6.563162201575409,-14.526325729731605,-22.641710988808928,-9.193390173161546,-30.00369327718017
62.64238417091077,6.313419136411163,-4.221271622658409,-29.694287143884424,-8.61878681819291,6.811736656916349,-23.32343434669454,-21.88200164150868,25.527233280433638,17.461819260472705,-8.508545034705092,0.5597370343796833,-25.905831944682433,1.7883744292062875,-7.594130945777695,-15.300897688111021,0.9912748789190768,-14.869419433717788
52.24367716566807,-4.309381773733062,-3.7847310567595924,-10.614646013741933,-7.140974580237271,12.669661616155363,-21.091414527109666,-12.028086033243483,8.872159996592114,16.52790132862136,-1.7864466219961965,9.921303618013443,-23.339950592378358,4.17890190856618,0.018233905529241312,-8.44799874603768,4.433876936383864,1.1392561779376322
46.535665727482,-20.520535535227467,-8.42721688879861,-7.649809321977649,-6.854047718828598,13.444748579570636,-20.71763052923032,-8.234270240648453,-3.9890509524628133,4.36044328435592,-2.099300016386949,11.66601166576493,-26.951343832630627,6.370233781269535,0.009885611152347096,-1.789975468814145,2.4038387676444293,3.86207596945167
40.830337424629434,-39.19483298270146,-18.734729907950456,-12.69392159812391,-13.129188128704735,11.187793058324665,-21.81131717523065,-12.258350594502579,-15.00968275079521,-7.517090574909503,-12.181498415445114,4.915124676792047,-34.10320090132369,3.7724653805831316,-0.6854494960430273,-4.994877823216559,-0.7043671627854037,-2.403901183243402
39.22886783107019,-46.171728059992006,-26.015784464263387,-23.305269760344174,-13.368544134665786,6.77769961324457,-20.563684886080534,-18.338473516235116,-22.920307768579562,-8.655469565992167,-21.583636948437913,-3.1045001707350863,-33.66247404539404,-2.442499039724254,-0.01693000709633452,-9.371099831409872,-4.207260419832988,-8.185752638902073
43.09800736794779,-47.11518358002493,-27.633673629662034,-37.72573844106084,-19.876978245444437,2.265267667226101,-22.736399184363076,-20.029177307011363,-21.568605781713668,-5.988539099840061,-27.278295806843325,-14.541147594621975,-37.34801290683391,-6.317523696895899,-6.285432886190965,-10.426317579560564,-6.4447809867891435,-16.60840073673929
44.624670641814326,-43.880497994490035,-29.35025492428666,-45.603324750175354,-19.080042116998673,-0.8846477660670299,-26.180845278442405,-24.557079930525717,-18.96262310351185,0.4835567358767605,-32.48814732667828,-23.24219333304672,-37.0541318883413,-6.09475336168696,-12.068936855285493,-15.484792986609667,-2.1435301973321317,-27.47640119514614
48.88658591260437,-38.225299411446706,-26.185033217314754,-52.40657339167729,-15.567617193846367,-4.4298950133153525,-25.916330623517513,-26.746262382020454,-10.02426289449512,4.998869080437384,-35.26000036057961,-27.644925933422485,-36.00342907142049,-5.192190749773166,-16.293171667862527,-15.171313723534269,-3.9991312226351647,-30.24258586515871
45.824523879763234,-40.6963998499106,-25.36472963339187,-61.35789482753084,-19.691381553839005,-4.268855855366317,-27.60685313971047,-30.405313769287474,-9.499943401896687,2.2837397898225285,-44.48066963467046,-29.89762718455364,-35.46533337912725,-10.934145890879716,-20.227650767068816,-15.345274281019547,-11.328094404106299,-37.01637894460328
49.403051693730745,-42.30905051097378,-27.865968646163807,-64.64436876448498,-24.615240821867154,-6.944603557542966,-26.174056206016537,-29.77236068209558,-3.3270431868641426,-2.4861089484388668,-47.94289470423273,-31.660289388586648,-35.63502406689625,-12.480586849643961,-21.919180104107692,-17.471470246767822,-14.071784517445142,-41.54754617234382
51.320764356103986,-44.918498881465986,-26.364465521044373,-64.51181613484181,-25.26092960723478,-7.476595805630357,-25.914723218957302,-30.120850363130202,1.85362480606137,-5.404503310987625,-48.771677014715465,-32.151460661839025,-33.87559123752737,-14.519060067436115,-23.613846398526835,-16.764601291357366,-19.847614710936167,-39.92963579701292
51.772473099817994,-45.00880380042479,-24.47360111408199,-68.1865967328128,-22.800267404933766,-9.673484603336078,-24.484908305642023,-31.35305037257688,0.8661204396319633,-7.643469582967551,-43.451288368917844,-35.66789103548228,-32.72597037783717,-16.951880409547066,-22.967820539627752,-15.666039359373448,-19.182890938084263,-38.99854429603124
49.585773882301694,-41.40779686886196,-20.43557926604103,-69.12532324517413,-25.045789416016742,-9.726615878942454,-23.837603320888924,-32.004015948246405,1.7183053788563294,-6.175748724155306,-41.356818963107074,-35.568663189604685,-31.307061079343256,-17.630547887838702,-25.05925964212803,-16.617155954682996,-19.206732230696268,-41.58619769015327
52.47511035823233,-40.755915845833414,-15.422334717045056,-67.91361779259404,-25.844963243324905,-8.221931474058703,-22.898407443968647,-33.733846073071035,5.777322020938833,-1.587415460346783,-39.65613818971087,-36.150526368357504,-29.813982944961637,-15.187822126688673,-26.567753167238173,-19.12958999543516,-13.864459885453067,-45.73928970659505
55.654729058444524,-46.17790675012486,-10.801116390603122,-66.89493638827904,-25.19768323045031,-14.632225143599296,-17.760842771423473,-32.733802370837566,9.722748476476877,-4.132658053449616,-39.81405274883465,-33.995268144991705,-30.88328381841309,-19.780073783660704,-21.73144509990461,-17.929750814234545,-15.85167842221696,-43.15675802995801
52.87400430621292,-49.0795736557854,-11.064219610037549,-61.283714766431615,-24.666356550965386,-19.387028831786715,-15.651411274560726,-31.347580217683667,9.355250614012354,-7.756819307156258,-39.77968747440417,-30.372247558730237,-31.87797818760934,-17.44220940787511,-22.952817152215108,-18.779372127201253,-11.789372797023875,-45.65503198219473
53.50754303362642,-53.36689822329967,-9.473298313825516,-62.505568471244445,-25.715721507313177,-19.36128280660654,-16.472282035509856,-30.551662793493566,4.38181150718359,-5.1356884319253675,-35.06072052180642,-36.02362452843134,-35.141609780380115,-14.033654515305216,-20.856673086019548,-22.069011761124653,-4.9003407829547045,-46.983856240143695
57.06651490910807,-53.863679115676014,-4.5635231576417326,-57.08338446855306,-27.36906165424528,-13.773710535280028,-16.023996798259695,-25.853696045203726,4.372853765126428,-2.128846470156586,-26.24302941329111,-34.4450497146771,-34.71679879359756,-8.089501846744547,-19.056294246883812,-21.157870145671275,3.4481199729717744,-42.06486576444375
51.733786550892745,-58.18686578706119,0.9306536063362536,-45.21212872458195,-25.817574730596682,-9.4603366166503,-9.130517783291285,-23.796646826204704,-1.8046329474872604,-5.670106404717955,-17.135194038148178,-26.124620964295396,-35.38850111537541,1.4645271411969176,-10.129635539258357,-24.15146644321664,9.740244658854031,-33.046365819494625
49.03241960372057,-61.94149249639401,0.9544177681309467,-41.05181966325467,-28.287771656988813,-5.63987928797223,-9.073118108809162,-26.919510977277515,-9.267781433585387,-9.704798465793282,-14.866154462795365,-19.16774042585663,-38.71895138774178,3.9837843972776934,-9.31124582806494,-25.873867212431247,9.679009713698086,-26.666573130574996
47.00870304561989,-62.49041968795237,1.5625160783808312,-36.39884908331159,-28.33406818446152,-10.124935259430108,-6.964762029574089,-25.06577452249944,-14.500924523341777,-9.643115559379952,-10.84195167941137,-15.332057885362286,-43.24297839713125,0.6402106248434052,-7.909525949795851,-19.97724627379602,7.561275935006162,-16.96819602879582
43.8065794177036,-61.00514656789905,2.5596010783919922,-34.76853372601499,-31.913401421232845,-9.438711205459189,-4.367790282337303,-24.68073578482727,-21.01974381778092,-8.024262084640396,-10.824311648805534,-9.539182246822197,-54.62440996712882,4.422335257151525,-9.733065844488761,-10.465498139307073,8.465169323308018,-15.962965011534294
49.093600781739475,-57.973555104676564,2.0901448629505044,-33.32843361790299,-31.99421731239734,-7.4874888355013525,-2.1609378509934274,-22.639231108371206,-21.988191761483314,-3.9694178898905195,-11.1021567900057,-3.058476636738952,-61.534611071307836,1.36515359783162,-5.699632182046852,1.5872145483413433,6.628810063075095,-8.513756960879505
49.00180038202662,-60.71955607982544,-3.263903202931038,-30.12502511778828,-34.82640265950083,-5.052499442489913,-1.4182537702685707,-19.429429862091787,-30.785364126588266,-4.412378281340638,-10.015219402872447,0.10627779205616861,-65.14512129236924,-2.7694734166593253,-3.03583272809632,10.223841702853527,-1.2682347591673757,-3.507251143342703
46.265024224447885,-64.94577627514155,-6.568872210169806,-28.67361498766839,-37.87063577816441,-2.036051905494146,-0.4793690650071021,-16.02778684552526,-37.35248999553126,-8.962604195930421,-11.17674718138149,3.568602124086258,-74.44008324428702,3.6397816597745827,0.602184726823161,13.784273263576285,-4.093049057035988,0.7169106292230794
47.91405621131942,-66.55014511613477,-12.12173029943096,-28.778513111232826,-39.56416044817124,-5.274151881819428,-2.8597738455090322,-17.707694249170196,-37.09962267232611,-11.565403679409865,-15.953857314015167,5.082551350049126,-79.36036399609182,3.014584049837275,3.5543064207565287,7.385693100904302,-6.3379516454278,0.7408854053297027
46.428674697364805,-71.29401104594837,-12.793488972730682,-24.579877989392614,-41.27394066010766,-8.126034100175549,-4.067022533292398,-18.41424333156837,-40.28078257260141,-13.002122521276565,-15.654917366202886,6.699119149153507,-79.22195742883255,0.6285122238941945,1.1330299539025788,5.579174625966353,-8.686605891175489,0.37350417826560545
44.0544301974531,-74.48933169072488,-10.43967080775876,-22.718056710775755,-41.43719615905075,-16.646436701154954,-10.643993333109353,-14.338650401877086,-40.84113796353018,-20.10888223270377,-12.818932726864807,10.176323911074505,-75.7822846780951,-5.666841565732632,-9.005360071658153,7.388209720366717,-13.873484060396578,1.5681018797890758
41.37669021375605,-73.30354924609948,-7.892374793915167,-17.62617700721769,-47.67096218239651,-17.553862456368016,-13.313009840428146,-9.094117154275615,-37.70639216651138,-20.287909771839132,-12.91463879589729,13.463529900556253,-76.75587278803769,-10.597894806097443,-11.040238217350048,10.762054178088412,-16.42980454436318,2.5670201441433314
36.53937774801522,-72.71671277005713,-6.03054415792581,-12.233588479232566,-43.86143100267121,-15.438177748175718,-11.09730300269375,-6.489158008240917,-39.4703549447713,-18.031532260465557,-9.691840065738113,12.752259611562302,-75.98983348918563,-4.10583373007804,-5.8504515060020115,9.060048963554216,-15.379038020110059,8.54630081007366
33.05759095554066,-70.38452862161401,0.6146319104585949,-11.715767547854178,-49.3445424306849,-13.522037752092151,-8.48893680419883,-3.398585191914176,-36.85545965375298,-20.27351587168782,-4.9082737347300665,13.6091759564926,-76.12045895349935,-3.085378885121049,-6.1314324844214045,10.583168144220572,-17.3619550801884,9.740351957089239
31.321380204880462,-70.79873295708468,2.472673134439523,-8.943314498542684,-51.61980084865929,-14.149175130594033,-4.804114742153605,-3.533250217391231,-37.67423408890292,-22.814639863287155,-3.056091847459811,17.596971683136324,-76.65897755702774,-2.4582573485649064,-6.218957591631382,11.229851558493483,-20.523099058312358,11.227558476122162
31.52548074185493,-70.83374638145644,0.3248205516690259,-11.923778787913143,-48.831392169617416,-10.971780818469211,-3.26534981302213,-6.990665803113291,-39.582790873406736,-21.650994350793447,-3.549242193453111,13.875803541604775,-75.84705101882217,0.11938899119329349,-4.0621387628596235,9.730612186332976,-17.733491406077242,8.711162344906647
26.247324906347814,-65.02019212341293,0.03051851181605869,-11.769920608509587,-50.06115706734262,-15.122778379621359,-1.1380329136954792,-8.008877969073595,-38.67470848521318,-18.14984045627852,-4.532120283779559,10.844399911313147,-78.5670514451398,-2.676696141987634,-3.5672092670069215,10.480110524466818,-17.782361259062167,7.855495007230825
19.00201323297452,-64.68581332544316,-3.29313926080782,-9.457932019578188,-55.797042968987114,-12.832364789349615,0.9920816888955954,-8.345576555371782,-43.64140348034456,-23.15123532021962,-4.637408785735108,12.995176213248712,-83.84187070136895,-3.9127371053082562,0.14879497900654037,11.622910202922334,-21.54865680293023,10.320920366931364
19.945374365622968,-64.26355293386702,-2.5171562497079503,-6.354636488698418,-56.077607023858164,-13.670934068376864,4.492394168153737,-4.387273644762935,-40.6153439546258,-24.448004565905748,-4.6462592182618145,16.519636431950676,-82.97942347605019,-3.3933404946420067,4.449192730831941,12.280150671079795,-19.36428625375182,12.78725722241343
18.62745604497365,-64.14346514387526,0.014663988283000862,-2.361992166506724,-56.66429050340833,-12.853189597597753,7.507598753126384,-0.04012538337210714,-43.073154675143506,-20.770635803050787,-2.214774098420211,18.19522729930068,-78.22527579140906,-2.4856349454513484,3.7675711265092495,14.893332879162404,-11.619900995520752,9.297564867961245
12.313270239872082,-60.223337471479766,1.8608608410426601,-3.436738216660686,-62.34194529207405,-16.726814305613487,10.72149023971608,3.5241306101504684,-46.62008332548651,-21.98259404814992,0.508689212895078,18.60804355333105,-77.0008384968683,-6.560714665192532,3.377526969376838,15.360887444925439,-14.136071260105016,7.566985537101736
12.916493192525252,-61.38942651918927,0.6776320858462146,0.6755695951579099,-64.8092741769237,-19.236955309567,17.0639906142677,5.036100656039206,-46.9590246300902,-25.544806295999237,1.7664054022561864,23.617693877992778,-81.06335829303589,-5.755064655662543,7.673737835252613,17.198546897323936,-15.291538182392532,11.990297460884015
6.666819240184289,-61.000398150061585,2.812714985918829,2.2603495111050975,-62.50335217551412,-26.145343487113742,18.234380760131334,7.523333194981969,-49.07034787565468,-27.453328365184667,2.5350668509635206,24.728094976846094,-84.55276312581545,-7.490588209853042,9.820241542399458,19.332128085815956,-20.06685458241472,15.536322281010612
5.087301669744015,-60.03221220875339,4.7504156285595265,3.6617648590636236,-67.63098391889287,-22.80323925185867,17.455553758261846,8.642202390255584,-49.73116138461233,-31.712145646615127,7.697676400619958,27.21290057904927,-89.61690082296077,-7.66557360273554,10.989010884711966,21.956996518811437,-21.723640307878526,18.49821100344143
-2.2719930049457204,-56.92171786858684,4.732879966562917,7.321634216532672,-73.64867629217947,-16.14426083866879,20.098871685380164,4.4865598701105895,-58.31641113338027,-32.364148878585915,11.394886216622378,32.1464771047393,-91.07927412446502,-4.717408704353861,9.71525988396462,20.87391736955778,-22.703338610307227,21.755059778447198
-1.8371889315189875,-55.76990413792331,2.4671205633143973,10.115282141107976,-75.86842172498822,-14.762205345659842,22.160552132828048,4.041080146684308,-58.6147043375503,-32.82736666099286,11.18536999354884,35.23201063981142,-95.48230026039556,-3.2359173995093338,13.323399315395847,20.965823553434312,-21.443421216856542,23.93983528955593
-0.640187655551884,-53.64639398975794,3.421957125205463,8.82037227777706,-71.36004058734825,-15.727253850297322,19.63681111920318,2.716012918146383,-59.610334315006,-30.85567344727847,13.124025329184036,35.29773019061473,-93.84080172223372,-4.002270129514688,13.12197064401511,19.986630807498287,-18.920456914722124,25.24802647596556
-5.908199924383318,-53.18729319984391,0.4683613226592147,11.347547135876951,-68.13100891440233,-18.16039732755875,20.438107250912775,-0.9533434866001755,-62.57262206217919,-29.671771900494768,13.402318467338379,31.562490829490624,-91.42761729526481,-3.793668448982917,13.31033703973301,15.104306226927406,-15.232090646050747,20.99223354498663
-19.98554269307342,-53.122389925623196,4.055698460884699,12.814281417942915,-66.27851472709195,-20.79199318896562,15.287135028849221,-0.5214129593343308,-64.27862169442156,-33.86556779465526,12.313341029132733,29.592895719925636,-89.51160496295786,-3.000648794663398,6.6619060194496775,13.545561891690333,-15.554165660659452,15.957855639023403
-28.12642110120104,-53.841646278435945,1.7814230308245058,17.51787321600957,-67.46225900869673,-17.664824762634336,14.828765973571254,-2.140467159442183,-64.23979324525594,-37.77289893230149,9.466580640324203,29.87734040428518,-88.67800540233465,-3.5762699813615644,7.239472332895106,12.57601809366082,-18.61711018799381,17.95767985790403
-29.55008933335843,-49.77789498870167,-0.49501272343546177,18.1343450296257,-63.18552708635654,-15.907810048595627,13.984973351097981,-3.0759228010516573,-59.91677344209525,-35.33896689964096,5.448102410496789,28.11898591522864,-84.72681724880502,-3.2743065733670838,11.332121848826615,8.48471538850165,-17.58485711048752,17.812044406449846
-26.405525483624153,-49.329018801852314,-1.8947009883083563,16.617199826164274,-66.14332342855276,-13.177063800766756,15.783320646937423,-0.3002229031170387,-55.80154559541168,-31.934923631811074,1.5275756119124306,25.19684816755297,-87.42308357312909,-3.168894915520335,15.326597944287336,11.42809105892531,-15.48476692128368,15.325797351549621
-28.654318067892376,-44.2910782338651,-1.148102703381067,19.216875967785377,-70.08504067542235,-14.35537114857716,18.075508790734364,2.768779022794421,-59.413472322886555,-29.416237187692694,6.1036844298720325,27.849402043221172,-90.4183083082313,-6.287324812386772,18.246402694175266,14.86310641603485,-16.809062091797262,18.507034585038795
-36.88290327077788,-37.886083421106186,1.451797605523403,21.83208586841154,-69.93195434918269,-19.05199692059122,15.685846326189255,5.349988686937014,-61.86540534482774,-29.34539719803721,8.824826728504107,30.900872596282564,-88.04758796178636,-13.410756744223022,17.454856253638855,16.05537219578609,-18.82328822259001,20.71518851896893
-43.27914186468449,-36.46108664889768,5.319042417750488,25.342080877316654,-67.73434525904406,-18.868268985356192,12.813782299000222,7.345916100183125,-60.52028129237442,-31.42939105388933,11.546617578520895,31.323949549102196,-85.77899023894852,-9.695111510988607,12.561406415271653,16.469779489512202,-17.62109395891433,19.215998603573905
-42.37467014969439,-36.01141466229627,4.301183219933684,22.618171526762527,-71.89023785146385,-17.417415048069184,12.682185695942623,8.268440314625934,-55.280127691177746,-35.277543266499876,7.530790512734516,31.560150379526362,-85.66255120879588,-7.738133678200711,9.913884610615241,15.129773387480936,-16.91342763389509,13.423671900331827
-43.44743248368402,-33.118336020345815,2.5974921186156035,16.883382368905266,-66.28555461274651,-21.535366110040922,10.701303532270241,7.727098007466996,-54.44552749173111,-33.76078918203433,6.9338676091267395,24.18755504801065,-81.54504650382293,-11.543685512324622,7.363898406966008,16.332314426195882,-19.629971651114605,12.225213491981357
-48.84166251273325,-27.58582054665547,1.8681401125941894,14.778752121592802,-62.248034124524764,-19.210107273279725,11.851838496566678,5.03845240508536,-53.71920507436197,-30.590068257685875,3.4082122720995045,21.120470234630595,-78.69919757300383,-8.611470078307027,9.013150229680049,13.729666925543363,-20.1065233119349,13.960589657450793
-58.46013876814347,-23.905405905913064,-0.52364225813945,16.01161291388668,-62.51152526907423,-13.566571388919808,11.153400825844884,0.4956437910288152,-57.300098266508364,-27.327844681500366,-2.362455483595861,20.112824413182203,-76.04996348008905,-4.996160000313509,5.877204778340607,10.739866661007053,-16.878158816096683,7.203989699690928
-59.60777925268553,-18.85366508763456,0.4026793565750326,18.43379247757651,-62.97382688289335,-13.88212704867864,13.586687199324864,3.181008604708383,-57.96117951380656,-26.220181901772907,0.9502772639998796,23.60611164530067,-70.86211295169466,-5.287560786142537,6.4523616558141805,9.609053954550037,-16.97617387430582,12.756654115000146
-62.83203164326284,-11.941585088503388,-1.212369796796744,22.240896681144886,-60.89993827350625,-15.46908420435517,14.6595903588142,6.8446175157355515,-62.04983752719052,-24.337278290758377,6.9987716162106075,25.643254354212377,-62.93950774186831,-5.383938111584326,0.87526470455987,12.583366545647074,-14.834011888767598,15.384114148184825
-65.20356258250285,-7.367722207714074,2.5414769120203378,20.79248166845553,-61.074497207099895,-13.54209335913753,15.544148740926051,5.822486955992709,-57.065507740754285,-23.241583496629865,7.189259708487269,23.8805053190505,-59.703305674224936,-2.160134150236445,1.353206392787456,7.260278562421268,-14.357913278962695,13.816954658395806
-68.87122790194981,-2.7875624275371393,4.535194128713762,18.483420019974822,-59.88356863836668,-12.300315495330343,17.51005520276882,5.192983984371381,-53.35952754772326,-20.58923287547727,5.818794345317084,19.48978989698209,-51.38689521684856,-4.112261305875551,-1.7818552783382549,7.800166854571429,-15.645462880769264,9.520173920574642
-65.72980703077013,-0.44650428848046886,5.940664380312734,21.564072899891194,-54.592130409598816,-10.083445671154939,19.092582474711687,7.202400298855814,-44.876724974052756,-20.38411029518177,4.5476682325250835,22.04159299756206,-45.80205155592665,-3.3299308508189442,-0.5219120481977422,11.273301147822725,-14.88793226773642,12.943278914603054
-72.18615810990941,2.0976259228374943,6.464904034539375,27.104965145071425,-54.08642506503725,-11.67658837907773,19.2176307651049,9.018824105974087,-43.72625890927196,-18.817475909579684,2.9853603337500543,23.03971147754202,-50.6628862275815,-3.426366664690744,2.594007673612835,13.968686645688654,-16.284524112746738,15.101882867981729
-80.13503208176968,4.454927681091398,7.279795478089818,33.446163189187956,-54.75249844842783,-9.266998322252501,17.59235864488465,6.931422840795815,-44.63420192901341,-18.13536535715706,4.940631156198047,22.874790396475753,-52.19880263609254,-5.671006194537782,4.44092827193342,13.933165273761745,-10.460011685350352,11.796824736083703
-85.76810568576701,1.743244137823389,8.678301328613541,37.951146773922154,-50.14431640094686,-9.104643578416916,16.560680038233613,1.7216187701074004,-46.42824336913688,-19.70489031457886,6.311962891346891,22.42575734686705,-44.54947645534504,-7.915265373955565,1.6009001170782227,9.897180541263747,-13.234861758170963,14.64949376643603
-85.86298700374167,5.779891229831662,11.051041812850416,41.108433775233394,-43.28864045478732,-8.747952255831999,22.27515703629026,3.7412913766861724,-43.83443940760406,-18.936036117086413,9.247931653998256,25.59892368477439,-38.358737391488276,-7.42461314874325,7.355446320022525,12.407759922629673,-11.620504384490403,20.7302722470395
-88.91619752369226,13.049918412527859,12.151878021170054,39.402564920759346,-40.04430195123776,-9.271030121090375,25.16545180545019,3.517797475833956,-44.274344631723146,-15.047435884142345,9.744674404710748,25.26526994183034,-32.356167443424596,-5.859116286836735,3.6379545557757376,13.94524638350461,-14.11306914700492,27.011880981569526
-92.6818916139547,17.401614377902966,11.492510194221314,40.54871100700862,-36.40669628084361,-7.060410539936717,18.786270374452076,5.3482337224422976,-43.352919536469,-14.582049280248658,8.290582546466458,26.405330235342227,-28.10342031431263,-8.980466222187887,0.9955294811733615,16.75575433150365,-15.829572008262415,24.021626118658123
-89.64068969600915,17.76146802708042,12.783921209077905,39.85949954980269,-34.62131047428295,-9.733266234333197,16.419178402797947,5.912391420703673,-38.72592990710302,-16.367870653247863,8.40143574588421,27.456563904333688,-26.283227945297952,-13.858815162442754,0.11184309359310518,18.007193129094922,-18.527752121990574,22.697277632802198
-92.78132138558165,20.966242438492877,12.315105487881196,42.413321568575654,-33.90623836600071,-8.207295719067815,17.868969482977633,6.870604903056536,-38.79148598395772,-14.350003621631302,9.491386828294734,26.56345088657996,-23.086064796708982,-9.556380337521492,-0.47790382392454234,15.746389259181893,-18.789485362279937,23.52722338823301
-96.14689824075694,25.55178951239153,12.820468085340334,47.429092945772396,-28.40136853628318,-8.927777665763982,20.889620690516516,8.223025102878097,-37.689661288512994,-16.047974087475446,10.388640349888886,33.003447328766995,-16.850874850227598,-8.182605433410004,3.0350065224447182,13.78197335260096,-13.587275600952918,19.96848999673883
-97.39385151831522,24.878097166924995,13.616392925180007,47.484992296411065,-23.574885147177262,-4.277275760858929,17.9615871172768,7.3330420565326735,-36.68953802424063,-17.067060190254313,9.726083487385406,32.616145597233164,-11.971381892771987,-2.9013324043068316,0.2989186244415283,12.016263938470598,-16.10480870321559,20.22441882668342
-94.76454203407356,28.61399168498491,12.261424375725097,46.878115914332625,-16.301089453723215,-5.486297254250438,14.651456979468513,7.325850460249856,-31.29838569717591,-11.938301595689346,7.406152071265529,28.819525162494358,-9.520947146246982,-2.794614776106049,1.0796704353978965,11.425812218759251,-13.255835664089808,18.53329036509234
-91.97014699520183,30.412425249750726,14.126725779538747,47.26878978185938,-13.903659636695949,-10.308581096808464,15.45157926343876,13.182139971127134,-29.718974329191155,-7.106979071015225,10.069663966782263,26.594083249299537,-7.740858655125734,-7.2763898055223075,2.4475926587520225,16.991134303016345,-14.122411817591678,23.48906882544591
-91.45227577685955,31.34833310521867,13.157504644944082,51.87985221606597,-13.35455266373394,-10.931375016576865,18.311230247669755,16.015198953110172,-24.821803372837444,-10.092605469495286,9.904089399101824,29.943733632531305,-1.3567277952566315,-13.709782287627252,1.961303642243419,23.145707961168025,-17.532527214210567,23.568219850664207
-98.97288357562141,30.934120996762886,14.822581580417014,58.07466544896472,-14.75077294326826,-2.9599477380701735,19.812473703558076,17.192376201768663,-25.883867598211197,-14.742607112072633,9.936905586543862,35.548053574197375,6.018977036626154,-11.157009264900388,2.745911840907622,21.68624961141309,-16.552362774089573,20.528657617147186
-94.60992247564057,32.78381363901957,15.703922610275049,59.40792801198042,-9.6931017661488,-5.730399059422048,15.267818612616365,22.96390514983231,-20.209165566508894,-14.416118851105104,12.902614304085956,35.00841189909994,11.84801922396717,-13.973642714640423,2.164717937146238,22.769128490462883,-15.381079441152071,20.42523272328706
-91.74261640048461,33.67538736691007,18.047642463140946,59.39541594857534,-6.77476800305412,-3.5197004187431986,21.181499379278794,20.82973067013642,-17.269998526701656,-10.773180830296468,15.676250636988112,31.74275809809263,12.615580694243192,-10.635953798120418,10.569500924068691,19.167633807484417,-10.502874449854723,21.30485691806639
-87.05069809069354,37.22285330859509,16.091920963525144,54.13090493478238,-4.725570090158961,0.449574677784252,22.123665180182606,19.188551492501905,-12.085318222563245,-7.915274226496884,15.1328473331161,25.262726232097673,15.256216823047467,-6.5150031259032595,11.260844625950295,17.034162937273344,-4.554380541840963,17.405785917821312
-82.97568928486463,40.59480428730406,13.25476531073771,50.25519434259028,1.6310012963644454,1.5876437486261317,20.34051194362236,16.282658764427676,-10.025793251523822,-0.37341936544278553,9.514643111651854,22.01364416103063,19.18483155846664,-4.247435076953314,9.902954187026667,15.001465084558717,-2.027725519712579,13.513307201951841
-77.75981119452382,40.86216749867646,13.442471224532396,48.64726452703104,9.951807116586437,-2.449148410825913,18.46886233819976,17.092725024342208,-0.8368505549770617,0.6218920258485028,4.778835721842388,20.62821486295477,31.238310975122474,-5.298001730037514,3.2731792072799277,13.85075761599577,1.1788458257704661,2.5961175206038725
-83.80563963832566,40.174064314539216,11.479164432892125,50.28374113669385,11.448294580241445,0.15591443558068718,13.969674582582789,16.73598831137525,-2.8776320711797183,-2.194772933815063,2.5856798583739495,20.61805539237702,43.11658461861565,-6.053253349012258,-5.112747853201849,10.359288493436873,-0.5986835537754835,-0.4040990142918126
-81.48399396278592,39.410056758835644,14.29853030668144,50.86771931959192,15.496247134108657,7.4498061518839265,12.897783807045684,14.528966682604787,-1.2059878590473545,-1.2059582699273044,4.986058642596756,20.518199908661895,50.13291093375395,-3.876318363572432,-2.9498991476355396,7.066110353155333,-1.50071573804437,5.19630748492364
-81.73254849560615,41.59816800619707,15.748116931266585,53.6219276058773,23.365851838676264,8.494987363749676,10.858642732200646,14.671062334950907,-2.755099649498632,0.5611000081135877,10.417516232839718,21.012147456245213,51.40919207328433,1.0375994748346873,-0.8829170033257121,5.8266697248422865,1.695589717659736,8.362053932120393
-78.98480184090022,47.71559915852433,15.33962124352912,50.538441736722994,28.417014325115474,11.59249222605451,12.051581005202177,11.595900528774004,-6.45021273648203,5.548000872207961,15.364439363968781,20.146632798150627,52.122101258334766,6.637798400173203,2.064826071734461,2.8322623549615464,8.795053737096492,14.562011175311843
-81.44397638221282,52.58710377071676,12.682397877355235,50.21114055062227,32.50585861905125,10.785323423893164,13.742224529691848,10.577112704880179,-7.310261436904575,6.43057065616555,14.748688266643025,20.167668330550587,56.08109387534515,9.21339401739447,4.623828273036853,-2.3077968882024784,9.641409009754693,14.714042641512057
-76.90280931162417,50.84210962023349,7.3858014600625,54.78847926861365,37.39084549369559,14.569827643859835,10.168805086062235,9.271023548979388,-3.186253535112648,6.334015107092828,12.183659342763391,20.78216012251898,61.13849304812719,10.522334238164119,4.157378144616327,-4.417703658253426,10.484889705027289,10.283043563354422
-75.51764290582003,46.77815009243811,6.774148122947242,53.137447653851716,39.94754269446075,15.719453743884657,6.409559448510791,9.044948801154852,4.359809679916886,1.1568682637429681,7.376436651154541,18.27898836858367,68.56463206151425,7.537336472999602,-0.6040287129268229,-4.3764351335191165,5.4661712297317635,5.468321781434703
-68.98748926059689,46.157613651008376,4.694985933288154,50.336207514197625,41.05547879009782,17.750000206267384,4.61298804528904,9.21538854338971,10.543221738400952,0.4697486907951465,4.916988486474519,16.271358922211487,71.13360944725002,9.828965284400333,-4.679802650757656,-3.6489164957921076,3.569906386301838,3.980892335764757
-63.66000432730635,47.51620461844228,3.0037977690068747,46.580020824327555,44.81688075801368,16.657617610156,2.1423579180058248,10.17307484188437,13.41135050124084,1.8313736678525174,3.340500452504548,14.856794262860912,72.36186318768854,8.608128673198383,-3.9682750168086667,-3.211785715961902,1.378215755668407,3.769959516475687
-64.515618675558,45.87393696474005,2.0912005707740953,47.630627924034506,50.84171202833271,13.614314731422091,0.26724161749031694,9.86729306199345,6.128676312732885,1.335594970576576,7.822881650872617,15.792993849800474,74.78924131000446,5.046822631155818,-2.473370940969451,-2.772131560896028,-2.8665978397832514,8.253556999546586
-61.202480814073176,46.21190212028029,3.617362112544644,47.921458488633306,51.806228504707036,13.307776845656523,-1.1100007391908449,10.446608159683011,6.078798187315371,-1.2127410554552824,13.57894882951214,18.10323594600793,72.06872436113045,1.879565403208487,1.8557629696335445,-1.3534399630608966,-6.0393440279060915,18.603586396834814
-63.1932438158524,41.59693486861074,2.6993818378965617,46.475843196640625,54.644707708695385,11.441174879181476,0.6474036421558367,6.7352513092882536,0.6643876598468736,-3.274371049413215,13.870361047512292,16.318538429347814,75.8223033878989,-1.4794896037164,-0.45363461037289543,-0.420641634433192,-3.8429391282016603,11.968141227564976
-61.79620459332955,40.23280705884532,3.243556109947245,50.22737692998277,53.30293882597287,10.065430502789201,1.6331549449232732,6.643587558786239,5.413543797250561,-4.65381727565687,13.873018750159106,17.274790233694134,75.79662141836013,-2.588800794846501,-1.588906400044876,0.02619760905792745,-3.796885706856477,7.097508316175141
-59.745599363351516,41.14345001475755,9.839785828614392,48.92187960421214,58.52383300493533,10.352543256242043,3.605098284401329,13.394407092769038,9.193800610857032,2.7546749373941637,17.49326882798232,10.717771708002783,84.10192921887156,0.11425192418492114,0.9890854992450109,0.6706149961009871,2.2045522849219417,9.460517861390105
-53.03726419782477,43.45043956100832,11.06210291648624,46.66084628976684,60.05387749093096,15.232349429376887,6.367920002465912,16.050124409113188,13.958826924202462,7.329996584104215,19.457627646251968,7.389673414883994,88.04339629777662,3.7976884196453113,5.424879248464205,0.43830736605526077,8.20439639059029,9.291388663097688
-52.1203648635846,44.419840942541356,13.45356393797675,50.475491682727835,54.96387984659971,18.845486026964597,9.823960236486698,19.786677734301158,13.654354135672392,10.146544553682286,18.98486464848649,13.442768361828083,80.78564081694626,5.531868813030187,12.890401504978826,4.212092709451078,11.566031274614325,14.695702061308472
-46.057006433869915,45.61464618468093,13.010190031405912,53.92024983913807,59.07492314062005,20.899078471719537,15.535736788460886,19.037650460228857,19.21855732868734,14.134212321239659,19.88366008435102,13.25164988708648,84.1069825699561,8.637246507492518,17.330904692068444,4.472255091566167,13.852124265908525,17.47019292159672
-40.706409936974,46.05873202417261,15.49377691285342,52.89332816590134,60.37562350659334,17.389255196976187,20.475849784585872,20.834471015811108,28.01518224560443,10.99225261703656,18.44304522420004,16.28894707912314,86.97272397887173,8.816969006227122,17.672184501839638,5.613322017081602,12.133086369168488,16.638265045087117
-35.775343689005666,48.58461276866719,15.533138544151242,51.59382966869511,63.5540592641785,17.105305639824955,17.124639446209223,21.075581995593396,29.204720636237113,21.03363525312031,16.616197273738173,13.081684129424051,86.16076955454162,10.172747214569506,19.7737346860467,2.752334890701478,15.100599273726221,18.840622168520405
-35.560474984602095,47.821538020034595,14.495473639003162,51.193455206644224,66.65757065663074,16.238667718717135,15.05254669448679,20.542309529148934,25.522085954150533,25.996521760505246,15.575028524900082,10.856355641536403,86.74991417831943,14.657819425988057,19.143327042902115,-2.059966048173205,15.821105743453412,21.34282122309541
-26.682405629757568,45.62541538687357,6.911939847548296,50.03181909481557,71.93276865029416,19.965288321835402,9.279005383000229,20.99255366657656,28.784356960951733,25.978727746247728,13.268742856374557,7.8549411359185335,90.30325614500288,16.705775537486062,18.124773676742436,-2.964189337472723,15.954929062799057,18.67599871073874
-22.129313037031764,47.85610484081393,10.067949085386395,46.643839182062166,75.76678735836444,24.671914523383588,7.811925058081712,19.69195492629123,34.49976494675193,30.648526141365075,13.896636534740335,3.393652448386206,93.50098841959164,23.44570918390086,15.253233322186297,-4.257349059506257,19.799150783102956,18.359766917381496
-15.162497179721584,50.6076771481723,10.77969922759863,46.30280558495552,80.40621253038141,26.940605601958794,5.866047606357451,20.546876670949864,39.4460866179234,32.291110788125124,19.118901613025404,1.6715857619436036,98.10148776944621,28.334627829135062,12.970172818418632,-5.6465460073016445,24.912467567508934,14.729939610867575
-18.96542339397776,52.415631188935095,6.703398259528126,43.051356657631615,80.77328632196367,26.673780655104085,6.371072730478161,16.9166428475851,37.08072998000868,27.781587842806687,16.142381648094783,2.200263241219041,103.42166843142701,24.927194058456916,9.90840564531359,-7.522485580016525,17.03698860582331,14.524860016570255
-17.619537139793806,48.00679840008189,2.331297005221167,45.678438034513306,86.14592531062883,26.605929833846417,2.7838957330680465,15.344368850287216,40.78327616758054,19.659210795066656,13.560962349299695,4.393546988086957,110.34094913603295,24.161145520638563,4.11479735841103,-7.736772287202843,10.528539938289123,10.713126523212914
-13.565926023407798,44.02223876098582,-3.117870573832244,47.83603432366332,89.49318981447922,24.783968292801653,4.577277742796181,17.587937347749477,40.30012702713842,17.98287741470473,10.886356676326946,6.005115369249179,110.949532352712,25.841234750361764,4.0855902377203535,-4.433984142919259,11.637354073890275,9.154155807207928
-9.24566496994268,42.90371350436582,-8.960503231893036,46.203508958380226,85.73728103843892,27.067426874484312,1.3017973942757166,19.155132198177053,40.41696990533777,15.91669460677642,9.97406045998725,4.593329288817685,108.27526752055886,25.963559627133876,3.7660218273045665,-4.743211469573904,10.500135213194868,7.504111032048581
-4.756030782280661,46.99531004644355,-16.466153266250313,38.632107330293664,84.83967801169345,21.542124145187884,-0.20655012710889054,18.092835082535508,46.01714310965161,16.292883624026658,3.9880277940335525,-1.8928211994981723,107.4944541819092,21.403134855973768,0.4216913972247376,-5.051193322753292,8.58188414461536,3.2238366115530823
-4.784202015990559,49.9495607091017,-17.431570844168082,39.57487993698289,86.3124671891748,20.805967832961368,-1.1197077285782768,17.91675773328698,47.628290078642316,15.107621882204965,8.260516949005545,-3.6877611239209713,106.36138321863082,21.437505263272076,4.209018494626463,-8.092421949638872,6.078049686241434,8.227519304552711
-7.669592410963759,51.27844586490747,-15.177118057886748,39.1680894790919,84.00357151497579,25.15198675849177,-0.9494400832583025,15.990170886368416,44.6649012551094,16.755650324218173,12.04916677558771,-5.869893479762084,106.8296077223004,26.359700671162066,3.3114297323552275,-12.30444904919521,11.094356180828111,6.401571329955676
-2.1811457955668487,49.90798296254026,-17.613069302816626,38.9739439755559,79.57351837686879,26.2793249287333,-0.3794080411759424,12.020127705692307,47.57678409894446,14.69404077866056,9.787473582753693,-2.9705866206432496,102.64940981375904,27.282920387159955,4.174347744971428,-16.613114975728205,9.372903976655763,4.093682095398552
-2.4788073863400797,51.01426822178087,-13.899411315819155,39.67572173924656,79.66336497614786,22.137218011439387,4.008349391182335,11.866115684692915,45.524350840968374,13.903476101237176,15.245163493491514,-0.3612191768277633,100.16889913317577,22.840006742997957,8.555622275608155,-13.889480088276937,9.995991738325694,6.870276122408853
-5.339433938245207,52.64436613071403,-13.606596905889077,37.073804273011824,80.07414427718223,14.776523030705096,5.08475408294348,11.133556342473724,41.144773722249596,15.067696185152428,15.726712357500968,-1.1670427053120456,97.63057179406869,17.718578972984215,8.837958669676354,-13.11813170338376,11.303565066114983,6.430375947332124
-5.586717018584011,52.0640624620747,-14.976779347463982,38.199203642857796,76.99750499322373,9.177825468949793,8.61154646531581,13.142829451783614,40.395579779536405,11.05781923228189,16.79859077524167,1.447779951822291,93.17924496063974,16.11796461045872,8.732358805866282,-10.099861997652415,12.514487502466011,10.48887068466318
-4.6850644720554016,51.12903989941083,-20.93968170493373,35.922550300568794,73.36346458274456,10.321707050825015,11.463609534473623,9.983671497195132,34.39031094898425,11.93272314802816,17.09356718558687,-1.9897572596125919,91.79575630546779,16.963970211617635,9.117748799125948,-12.745022650935319,13.726540464246321,9.084595761395889
-0.5831957800994729,52.37856836135996,-24.463935756884315,32.09897776364233,70.93013220266289,6.098641210463779,9.832219078322655,6.831953017367788,37.09441153848381,12.126044776926811,15.14674972238311,-4.93679144978039,90.55064517761633,11.66275332719204,8.040979025563626,-16.56143202151877,16.99065831903144,3.877655042569767
-0.8002795742577575,49.758019629624734,-20.666641722099342,33.66181328483148,71.84623247176887,6.176773660895622,12.11586543169105,4.0783122097437925,39.91437885044551,12.516829099055784,14.864419712602952,-5.3427160440115955,91.9832629513809,11.054358779361955,7.9434969195383704,-16.763934876147417,17.61938945028529,1.5086945874685966
1.793185582745295,49.90825465170052,-20.68076731233395,34.45823846917466,69.95956653578978,6.747478200086263,11.28311307602804,8.5587950987107,43.63184400284638,14.570064749397963,15.269969015678388,-7.992966376643896,89.35545423526929,14.064584079071661,6.481519429286066,-13.352604832979319,21.7652894230446,0.9033965187563204
1.8265191024713232,49.31371231202808,-22.16251016809331,31.362816687247005,63.12188727809983,9.66627377599267,11.04487505795606,7.4802389724166325,43.26662201170139,10.961540894900828,16.168049008906934,-10.055673981864825,83.8393191263551,12.587866437816011,7.463699942955459,-12.577610422629926,19.27206916958145,4.991407927407462
3.011218605466553,48.65809720709607,-26.088429124978916,27.402541057258347,58.85304821637894,11.124526629854788,13.647195535699467,7.971657194394854,43.408976805601014,14.777511469165496,9.06240081523519,-14.26546134516932,81.00153457489462,13.167301086089768,9.91346142521909,-12.485869509845434,20.393905229857264,4.788129319030006
5.933742068145051,50.08996290714801,-28.16156304874428,18.670697571194168,56.46963704061069,9.364411768255408,13.035208035673474,3.8806076132680936,46.79366545137375,17.424209108621017,2.546867803255889,-20.231902865518194,81.33055361969829,9.259843084346713,5.529895207483802,-13.370427453692647,18.294867490699218,-1.0737372688068767
4.9304598030767295,51.949193985103264,-27.30765419973955,11.319312190258927,58.022642506024,6.241436808373312,7.45098399931295,5.851776583996809,45.022452672279016,18.999402274703492,-0.6441732787708006,-22.48636988952356,83.36165312002083,5.162453670143632,2.90688057780908,-13.864147470239498,19.81110728637704,-5.465268515130546
7.521544412115503,52.8686311096661,-26.55406787203219,7.594094321817735,63.41456743678108,7.61507294361671,4.609393081953677,4.998299696158238,46.29890888851995,23.800139149740083,-3.342839013930565,-25.326007052774145,89.82937144991777,5.8556952992946325,-0.20171338148372264,-14.846020209193481,21.13408006516803,-6.824034304951333
6.9691454739103165,55.778038409330506,-24.43591124487203,4.369571038303263,62.48915179825273,8.504778449529399,2.1665551989256784,6.788997663345299,42.71306712166474,26.455348483277156,1.5798414349193557,-28.067413363201496,86.47577897186304,4.015252225010517,1.6729428708275194,-12.214490957623905,19.041185470744267,-0.3649010263003518
6.984797466826791,57.06409434660929,-26.51964670863296,-0.11252852933590418,58.37157262673996,8.519921634505554,1.2942664804964963,5.462048469203403,43.64036998298343,23.15647965846739,0.8423692116532671,-30.222502277649674,77.40258006921722,8.527990637604159,-1.8208759996141044,-10.461885496239171,20.173252625100254,1.4118430904100236
8.54562451942057,57.01976995422478,-28.02001411542511,-4.094802582930086,58.67924746677662,13.226989212237287,1.8947700818618038,4.1424818996744825,46.93263620315561,25.231928526713823,-6.922512177577545,-31.791474777015054,73.74281541094678,12.753193139844841,0.7427797900332873,-9.29529968025345,23.260831397390128,2.4124084093576244
13.995965167052276,56.23099250334689,-30.011215643196348,-2.792465031248156,58.041098949368504,11.981279302573695,2.6984140007788966,5.46703655454311,53.85969475394262,25.06448605981783,-10.581870354130547,-30.91903346368916,73.54336762207531,10.440770411520852,-1.9643943240926536,-3.831914902219588,24.007079389425243,2.7343517692738324
8.980690098742933,57.23682715161869,-25.559516702906503,-2.163086522905658,58.80099577761282,12.88837241577639,5.169960761102804,5.822353245308165,51.5309915135799,30.75983606528519,-11.600623213720588,-32.19529034060957,77.68317308277224,11.649472875835604,-1.836813473198104,-4.814150285591613,21.24019954758888,4.526040980596029
9.223259358273786,53.4941523855134,-20.426686860854048,-4.648564059794381,55.099541173113074,13.018520727175568,6.379572461154526,5.696695517104089,49.419583979558496,29.62256034595636,-8.709273657000555,-32.69070984539068,72.68545983706416,11.789387101377525,0.6372252635442628,-4.917742323422585,23.944797440834016,2.9044850818241983
16.77505443883367,53.108490964460465,-23.108910363323123,-6.245388467234761,56.311930611072206,11.981073976149354,7.9873229457368655,1.476699545380601,58.951673491434626,30.246624677274298,-12.454912804502985,-36.21413879148546,73.49183796321277,13.008980920955821,-0.6947248978210805,-8.049066907994488,22.843478873244685,-1.2515016123931595
14.644202254633718,56.37272979147173,-19.93406242552373,-6.075102602664259,54.03963576768375,13.487003330773033,11.457968619640576,-0.7828844350736404,53.07630073648866,31.167244206359413,-4.966230995875687,-34.26954692907125,70.04351592364398,14.136356228265237,4.3237311240442144,-10.301879992917899,21.159038025739687,-2.2778768221328427
12.401739467614341,58.403879011467026,-18.910034583361266,-8.337455834467747,48.185021263859,12.848710675252752,13.27571926259824,-2.7422698045385765,52.59478796719134,29.25944909408864,-6.067807802523419,-32.228301197521034,66.34439684250978,9.507356129835934,4.3642848808484125,-8.648856456013258,14.1063320298254,-3.8857425314458247
10.438879281375428,56.17442942786239,-18.376600143010624,-9.517239761074215,42.26377327719048,10.847427737630895,12.26856862334788,-2.0577046709634104,54.8705886463423,25.40223343987165,-8.044741555464945,-33.50861172561328,62.296739077633546,7.2275623873274935,0.6964757421985581,-6.898712239946789,11.841849907859395,-9.981517324484354
7.584314859714773,54.27415930954914,-16.380557272848005,-13.325922130994499,42.91661099127822,11.19411487692954,7.948112923220943,-2.2449035532862354,49.649841307895656,23.30666240319893,-5.525917770127176,-35.278591175563605,65.22476980987548,5.929753303378629,-3.457002739974321,-7.883585135132924,13.096122747381761,-16.46368612362251
9.795757889391027,56.609226630213676,-15.753931533461584,-18.59208674624516,40.28008098842781,12.22855320478786,8.51748563597788,0.5047476076891186,48.749322529190835,25.023616166651795,-6.812306946259543,-34.901665509702994,61.16330970990592,6.0045438786668015,-2.8226450512528256,-2.814341100435378,8.298771400883192,-13.273612643448953
7.796315781052812,54.976213635512224,-16.59432993368117,-19.456748625622176,39.04171878423118,10.727996486895803,7.042868984763203,2.8708459787326426,47.286324077284675,19.51783435480515,-6.923428234868052,-33.159279339978056,56.948259219784234,5.79173398934606,-3.4552440736223744,0.39868109911422067,1.3561825549845317,-9.884209480167186
9.692176570396661,51.62106499074972,-15.19070583948872,-18.16651764889106,41.93589092380286,9.719790392631078,-2.530636582230489,3.876772697427892,44.186778330652196,18.89893764624012,-4.687453909212037,-30.442243994931616,56.485767994692324,3.1428322735779695,-7.11265262345599,0.48586978681381776,4.377990783484297,-10.299556551848816
11.284655612685398,45.567004349074864,-14.472737222882483,-13.549984909994322,37.1459466925409,11.645330726332405,-4.773229127993758,2.9365381392699987,39.45084155848358,17.698150161110746,-4.108417674844272,-24.211636215884496,51.37709215835784,0.10862770376239439,-6.079923185041272,1.5487897530648844,2.617949859752226,-11.297061694459725
10.425883081880563,41.110757942877825,-14.342710445600723,-10.002234503249916,32.09379640162108,11.816994881390581,-3.884313729804955,2.784514192143913,32.395054611488426,15.134264242837,-2.0613393615055653,-18.276283416929957,46.79789576128813,0.4977461296464547,-7.974373867702024,3.489723722109945,5.2559576523008005,-13.169811998191499
12.097006158705355,44.01390292871112,-14.605252524110917,-13.67619135497057,29.025476559232217,14.336353528672085,-0.2546447504903959,2.248761556991454,33.07829854085601,12.867512469090222,-1.1830465719348968,-16.933299229694224,46.26364365255118,1.1851114532214453,-6.4482663272231235,4.355458115845453,3.6005433695583093,-9.86314197691543
13.075923531974524,45.877629185654186,-14.088411532427564,-16.564409281033882,26.768989406981277,11.781360715917556,1.8187127855442284,0.35265490523573817,32.7114993674421,13.437043847499336,-1.3759512410906964,-16.471860069701407,39.71535752754143,1.3894309895316113,-3.943059182700784,3.559988479293933,2.9252908701524625,-9.385101183139064
9.359273354713984,40.54923988894838,-12.499153731987874,-12.710255553036824,24.54295500642472,14.601333700486965,-3.5238309499432674,-5.442956371591947,34.41981626455535,7.858390859300922,-2.3471508316309,-15.23195233360574,34.28180442691189,2.5755377743744994,-4.072104251647659,-2.6077365642771433,3.2302638814151337,-14.665537069197466
7.002442107651696,39.747390172063646,-11.79057200393327,-17.73945863212844,23.421477568754767,16.7414284742483,-11.887803938161689,-10.938840177684021,35.07830193855837,7.069261828292145,-5.756898569262638,-19.170863553952348,35.236237774353654,2.3996107237827395,-15.038667422123964,-5.2609191488722065,-2.2228600760483843,-20.333389493544917
9.81468905222194,36.14746160346618,-11.181341175340359,-20.81249972992382,24.673964105966363,15.85779202905459,-17.02323787162712,-15.451444355520877,35.95659635776689,6.675096777463207,-8.968508026630108,-19.69487535819429,33.88683797304837,0.5686390907956707,-20.143291099443754,-6.2551120565467455,1.1169817587694588,-23.65435754988539
4.0268807414320555,30.237440983104932,-8.229953236847043,-23.101762135891853,24.979895403125823,13.903508857476659,-18.93026049327598,-18.59019119051193,27.972608052693523,2.378990419744902,-10.1265555640855,-17.292436556573303,28.963757877834624,-2.8197590680627513,-18.800045035023462,-5.981001197955395,-5.109808362156059,-18.280804135183956
7.120360803835485,28.657739026807633,-9.088780135888936,-23.435843133491552,23.557841292941347,12.343371749223591,-25.42161934857841,-15.56990581579155,28.997770917762033,1.0170168441070366,-11.965532149908796,-14.795779050716487,20.662001036031796,-5.421839781025934,-18.43093386820532,-1.8995395090292035,-6.645145035062445,-18.177902224601045
3.5681566483392686,26.427481935487435,-10.828022892540446,-24.940280050560553,23.435011527330417,9.90775383444955,-27.31761570358352,-15.472813552697787,16.766176811740998,-0.535842302860587,-8.528390657981719,-13.474608210192255,10.836737563916984,-3.3313372929845677,-15.032006815610046,-1.92105734984949,-6.516364888090891,-13.579994014129447
9.093772193169812,23.155696539633553,-10.127250554989349,-25.662406931783373,20.99787783761424,10.209912384115981,-27.74342650427048,-18.39662865627543,15.301675662933079,-0.7170367438305583,-7.041879617539821,-11.082948055551741,2.2220426276568332,-1.7241576920075055,-11.82598601857606,-3.6041638559168714,-7.164860109435676,-9.956029185431875
10.611677399397593,24.017887988435774,-4.447293166409411,-20.915140032970655,18.687680412796965,8.171563002902875,-22.206925311057276,-15.16158103644758,14.057266721995589,0.9617458136722412,-1.0606646357602116,-4.69121571147436,1.4582867939737696,-0.20971784060067122,-10.180096694898035,-1.577735190310129,-4.391298533491639,-4.767022705876471
12.028788116432075,27.841795746372114,-1.79601586608133,-16.949061176697708,20.019883417639505,12.679475416019194,-17.83725703454467,-10.65061609636965,10.49387335471232,6.746654193993194,4.629947904255621,-0.7449686329563292,2.2950051352806895,4.336980207539465,-5.895073001463416,3.4745733613554,2.6832868888909545,-1.431111624404641
16.666072579209892,28.962890954903102,0.3657528916402306,-19.52646189733381,17.962904185928963,13.284184158678434,-16.09941786476803,-7.695867558139593,11.83818246029405,8.141483068437935,4.756362295040364,1.7322267046264983,1.7044247629719962,5.275158516712498,-4.5374232266446075,5.009642868625399,2.9259592408194948,0.051588023703029624
15.246649095596716,27.966728152386096,-0.20804395459515135,-22.593045330892583,16.42281632518278,5.005054650460057,-15.43101419365885,-8.836496737001898,7.8361350714331905,3.58372397381547,4.592018176437424,4.400410740788267,-2.8529514854377567,-0.8132572452196385,-5.325902660065386,6.152471435668021,-3.6632379255991907,-0.026066426961631056
16.7556316575355,23.485695412885434,3.904653376728465,-23.707848907313057,13.250903210782383,4.443810399639581,-12.902444140322233,-7.920126843647822,9.52304929083411,1.3742975710030443,6.578280173012152,2.9625045049662226,-10.010323730117989,0.8179964820061727,-1.6198022875385394,7.684272162062989,-4.4864144651945495,0.19130638993594817
16.89667960665174,18.64442551177082,4.305351242954792,-21.894773822188952,10.790694203122854,5.740892284110046,-14.763933432620282,-8.07186712609514,8.695658237305267,-1.1235449491038203,3.586053861804258,6.793515389161826,-11.56486243354,2.844532261996239,-4.845095120513085,7.261211220532569,-1.984974077110877,-4.765242440312943
14.107866750914043,15.786278280338593,4.0215119854517365,-23.502049204587284,9.237238603772653,11.532962260640943,-18.183537951139805,-10.170699491507552,2.131229705992439,-0.19880180463674435,1.6700392630801302,6.811140647660423,-10.642047655930014,-0.49551517614403195,-0.5484531299523216,4.101979383748182,-3.48320930879116,-3.7628457397359427
12.296097825916286,14.71550161048593,5.201678582153733,-19.838609389647274,2.926111818734995,15.08153700616672,-12.712009784445318,-11.775243324722375,0.6697361089113514,-0.14840836638417798,6.396647260329613,5.456693626031026,-12.808814293900468,3.5909578951885592,4.434064269493554,-1.6958121550947407,1.0776632166626818,-5.297841789822579
12.047911623173759,12.501916305913838,5.892769133836932,-18.619886012604077,2.013433960167063,13.652098405224306,-9.18948826661607,-15.424663362088737,4.115815368301099,2.2503435811585852,0.8710081093721973,4.58554399146767,-10.643628731978879,8.170190116814535,-0.8352275136573707,-5.63995313454166,1.3459573871501842,-10.151607053923769
11.801373615725593,16.66471133602998,8.633957908192215,-19.55337274814518,2.8855748769122016,10.271932963145002,-6.151237329091941,-13.599377674386279,7.684181875786074,2.7981716554333005,2.7690917206019066,4.295224859960356,-9.029843134479592,7.675626962419843,-1.6100275030835984,-3.6288634883306194,2.3022505124383237,-11.390556139547247
12.338331751326749,9.820342244133215,11.569820900219487,-20.10043175718259,2.12421128807145,9.2378758530558,-4.378648743734991,-14.405043290284038,6.00359394882166,3.9365175128506884,0.37188790991000253,3.3160637668933255,-9.823429842067583,7.869010283258295,-3.554502497834722,-1.9126828363038353,-1.2292868320845791,-12.042192727232829
13.171079816817862,8.863122013092507,12.551960832583415,-18.60134115420375,-1.9311490803607398,10.159188863510158,-2.7976170014865054,-15.497939549143918,4.445151798474939,3.6145645303719363,0.5153568493226404,7.409748330098942,-10.485772610519874,3.4767558682008666,-0.8092060445751511,-2.2492939806459624,-3.584476655409633,-8.200320492189611
13.714250071972456,7.73778568835499,13.533605378292268,-17.009711518311573,-3.4213605324405307,11.8638701026156,-7.267735890873729,-15.413265930110814,6.231475943946151,1.8323064528081723,-0.804550671938455,10.716697895470237,-13.263493786709091,-0.7159746329365291,2.7195342142419716,-2.978558045468073,-3.8843719528926357,-9.044879800657236
12.698866563581051,5.369604404500279,11.292121766268231,-20.501854724018592,-2.2490917661286147,10.44549929611853,-6.851467611439278,-19.326948696501834,8.237424500722689,2.30072903386586,-6.712964387742598,5.033548863462489,-15.227364419627733,-0.3146518496427788,2.5394441152197538,-4.979436623965871,-3.4961554426220527,-9.7907536616101
16.375595054866963,2.8323112700642668,9.929207440489414,-22.339834015207764,-6.031980381235428,13.911898911389178,-6.431827948398889,-15.129494541349565,9.681632168366491,2.090089640774739,-5.784010892644224,0.8095688336928575,-14.034110536249926,2.2392105155224495,3.7287079501819638,-5.615211889117834,1.1935332243553844,-10.438053805730977
16.44409351480448,4.617652339785138,12.47232433207618,-21.64517251006498,-5.004593369438567,17.575383748022453,-6.106603072876801,-15.9071075309121,12.907772268521704,0.4191139266945534,-6.513995868429683,5.076007349790611,-12.906957499070444,6.261936874914659,2.380997841794246,-5.178897442915408,-1.7295279462533273,-7.8618437085434145
13.490869515249468,3.010148544055909,8.862796748796518,-25.254350067775455,-9.32368355383484,12.841957658606542,-10.07520386547806,-17.265256650737903,8.833553582906852,-3.102843431430909,-8.61002844177117,2.988783030597318,-14.67850747109442,-0.35610510689277675,-3.8474903189244336,-4.940083514607885,-7.773062248225898,-12.12098117005992
17.086937738156703,3.478108477664591,9.257100691431031,-29.06617473077589,-8.149596178347409,9.379620671474722,-10.036850065122145,-13.051571958373957,8.3965127988061,0.8993443810814412,-8.361196851634556,-0.17868815180160524,-12.317938238879734,-3.5522745031647744,-3.726134832539142,-2.262049955863617,-9.905693356658297,-7.687995458221009
19.322572168405998,4.751449764944127,7.893499933720493,-26.04971722999605,-11.443781396137481,12.266457912505098,-12.14410652148251,-13.813157463472626,12.768403889734358,0.9020459737295781,-9.673893046268532,1.9212478198533844,-13.150122386493564,-2.350068603906376,-7.216043677531803,-2.4183528007374333,-10.08055864724356,-7.746790806773754
