Fp1||F7,F7||T7,T7||P7,P7||O1,Fp2||F8,F8||T8,T8||P8,P8||O2,Fp1||F3,F3||C3,C3||P3,P3||O1,Fp2||F4,F4||C4,C4||P4,P4||O2,Fz||Cz,Cz||Pz
3.934806243755957,-5.278309157031401,-1.3399177450640583,-1.6166745242548473,3.6050120923068256,1.206847694162402,-2.522505444261789,-1.567601661290512,-1.8552493774179197,-2.0999341381105783,-0.6039474893078098,0.25903582216976684,-0.03837411477762398,-1.9385563310904885,1.1624485251484917,1.5362346016357982,-1.3337731784445204,0.9422243546414779
-7.793053264180366,3.457582242946988,1.0476451230481472,-12.614746221876612,15.534795967243902,-11.94769925705997,-6.15226373613274,-16.753279302103167,5.4176820677207145,-3.8220625935665833,-7.171274822159528,-10.326916772129584,5.367790765860507,-10.61476104725115,-1.36652038625334,-12.70495566040786,-9.295299683262218,-2.417378961307776
1.768072398381031,-0.9913294360219025,-3.5975975527644533,-13.749416609091178,19.749388024160552,-9.67329707780831,-11.345546477383337,-14.263221110702201,1.4594673061307315,-1.8349719956588437,-6.317594348485725,-9.877172161556752,2.5700099439694135,-5.522992339080851,-1.1611795923715285,-11.418514654249355,-3.6850297044352214,-3.042402174346874
3.3208184791519573,-3.97637136059322,-8.341953012434233,-13.419267317878088,23.47558620039537,-14.43134250074694,-16.051610241617116,-16.851725990785503,-3.18290193553724,-3.756034008636476,-4.781301814344966,-10.69653545330991,1.62700994847782,-12.249674580413568,0.4112548960980966,-13.647682796914753,-1.3002119339520153,-6.694672476590753
9.36533269395421,-6.571765942289311,-9.767406510398361,-11.917287632782832,26.029910835448902,-14.600680604064216,-10.504749678108858,-13.776487647405737,-5.5797371362139625,-1.2844079485952884,-5.003852155037979,-7.0231301517449545,0.19498468639093325,-9.798489588850543,0.42104307543358743,-3.669545267101352,-1.4573587016898042,-4.780329590538347
7.499038736374679,-1.746142238912354,-8.459909997072732,-18.911609956081623,26.338250513326273,-17.603415323103455,-9.646667167955961,-14.803324830173768,-6.121712361754124,-1.451517562499098,-4.739128523759371,-9.306265007756181,-4.2651870094640945,-8.130622205847502,4.825299140320428,-8.144646732912538,0.8239592126737101,-5.4049871234303275
9.440821852802895,-6.9802211568823,-9.69298628204819,-15.944937577708448,27.81874892604661,-16.017673501158963,-11.621933197704024,-13.486870990750973,-5.883105229108963,-4.8433749123501855,-5.940296634614147,-6.510546387840327,-5.015140556322489,-11.347792176252483,8.252839271777303,-5.197635302765834,-0.02286381514266722,-3.8810950365444103
6.596757106002778,-5.379198144378342,-6.142309013555502,-12.392429761233403,28.127742021085602,-18.73042387602149,-13.207909236497741,-9.729512207850567,-8.379636177706377,-5.698238050987731,-1.4783520952244271,-1.7609534893243461,-4.9846271779441915,-16.03207247998303,7.187976553033273,0.2886198056142124,-7.415961929926141,-0.11101738223919644
6.584104215504698,-7.197119476724367,-5.2298699032903,-10.988519464593491,32.53886826821724,-20.56591978259917,-12.451506657515743,-7.437601379858277,-9.90035214585638,-8.215453561577856,-0.24015961494229277,1.5245606931938216,-8.079975002405853,-14.273279192655167,7.49016695830292,6.946927685007198,-7.878678930194178,1.8035986633169327
5.691824868632734,-7.258107554915851,-4.025939498432329,-13.100431300592085,31.872419262032487,-20.54769644848599,-14.821624306945804,-8.759651515294252,-10.640608898242828,-11.125533552918151,0.21571424065581746,2.8577747251175527,-8.539395358117682,-19.15764158076392,8.768770930025555,6.671713000168069,-13.813658343787818,2.3510194187348734
5.384740835749173,-7.612956618230276,0.692185594875431,-8.474118818273183,33.15987000585132,-21.214966706651317,-14.84949330083144,-3.1486687981935537,-10.307472673116271,-12.475384864849003,2.428360939906996,10.344347592098526,-7.534798569880612,-16.622536135224003,5.261973041167279,12.842102864118406,-16.33415483681664,2.8984305780370905
4.881545752904961,-9.628855794852823,-0.45063897707263245,-4.726902023449007,31.713765119067446,-20.126397501331212,-13.707070195927525,-6.522906346589875,-8.6080088384631,-14.413538275497753,1.5148840003121817,11.581812071097477,-7.995933705522738,-17.801035211234908,7.9074312693050945,9.246928722677868,-21.104424742662932,7.547434279429971
3.303275439379288,-11.059656901207985,-3.3527886894276917,-4.78852940753134,30.366293538531245,-15.035970017807614,-15.98433151403742,-11.167443485642604,-12.280639139651162,-14.693925051937931,-2.0364370472309306,13.113301679949828,-3.3797484356051832,-17.712682878667504,1.763502300384201,7.507477534938951,-20.11663906273405,-0.2061507812087746
5.532772341649661,-11.22173467463292,-1.8618257263757951,0.9114412608144562,32.92621983029711,-19.127587050883054,-15.235928153538387,-6.242311142591693,-12.047914986522729,-12.242368083536086,-1.096596030380932,18.747532301811926,-5.698160430582081,-17.041170905950842,0.8928914924858435,14.166833327338225,-21.378836373134757,3.4661405037402164
5.612869746475526,-10.993986780747255,0.4089144704130665,3.583797047750277,35.292029745021026,-17.26440533366157,-16.637781056904945,-4.8336858325447665,-11.034919795947408,-5.69171572820477,-1.2320926765039995,16.570322684463832,-7.529196425544283,-11.782618242082075,3.147119198401748,12.720852991141795,-14.246424983940166,4.892200771188655
1.5903683197035052,-8.423235516833646,3.6547490891123493,2.8378906476135617,40.00293341372028,-19.212303828178115,-19.60400342463958,-1.375114926874914,-13.245655619999505,-1.3897764549099396,-0.48978039768233617,14.784985012102874,-8.872870738464997,-8.187205198271988,0.71355670827206,16.158030462500275,-12.098615292710347,7.1970537135071675
4.8911791982994535,-5.071980932802971,4.750632925434898,-0.935663352682353,39.344076226153845,-20.38147210844155,-13.39230237116361,-0.847180925100341,-13.601953618904927,-0.2155238782950104,2.3022258035259497,15.149419531837632,-9.436223780642356,-7.2315927095574875,3.2603106706543192,18.130626641001754,-12.005773023976134,10.380675099985348
4.675248879316739,-1.721460279151617,0.2785483349178799,2.0288926541128403,34.78042904866285,-18.13525288648845,-12.846711781393589,-0.6131617604098287,-13.76402793330354,2.616218766793634,2.749320073180331,13.659718682439351,-7.363771417882962,-9.501809288137807,5.611511115168334,14.439372211231493,-8.401502768961159,8.58357606387505
5.2394737336148465,-2.8639040691277224,-2.5348278630832914,-1.647568174743305,32.9528208168481,-18.137895048392835,-16.111790799934965,-0.8684089664399863,-11.095151021102627,-1.0978496966672127,0.07023328495641235,10.31594105938725,-5.194627103733626,-8.747840122771764,-0.4361019815806735,12.213295210174621,-11.637618535137776,6.297987977914193
-0.34988979019999267,-6.448473381140953,-5.252014664127189,-6.5938866163010985,29.369095878884433,-15.018321037905638,-18.988311604179156,-6.398186972014111,-10.86887115022387,-6.279576246131652,-5.051437236734619,3.555620181233609,-3.9053797175431058,-8.290127372575558,-3.944871674768036,5.104655029680628,-14.292223324018087,-2.3355784408859375
0.7002785005603824,-8.080542702617455,-8.947241556524027,-7.438903492547789,25.98250717473154,-15.612668944663048,-16.886414183061333,-12.124327533177933,-12.303955536916956,-8.339094974763725,-6.072629404152238,2.9492706646161904,-5.742168016581253,-11.156138365352465,-4.133546082834551,2.390948978606045,-18.80684951858671,-5.109930735068267
-1.9617853352814203,-1.90061961005296,-8.346984104563457,-6.721736626155015,27.28540659190461,-16.307696730929827,-15.763273212067013,-12.96866146054427,-12.373042191984293,-6.592847952463037,-3.872269018971283,3.9070334872774173,-4.357248871395597,-10.412249278150286,-3.8342097879839017,0.8494831259019926,-17.759595306079902,-2.220409613412529
-0.3281897703918668,-1.5807589187688782,-9.506014906335825,-4.247087170873607,27.809054195554516,-12.70889844787926,-15.911913173311653,-11.37266458472834,-11.076157871650498,-4.849531623875077,-2.9426179014046943,3.206256630471283,-5.707753646027195,-3.031144193313108,-4.023450378677443,0.5779262076618696,-12.517752978492336,-2.0656061082635597
-1.9186235937079754,-1.2614666483528225,-11.447748441908562,-3.725965947823406,25.014439900779543,-11.945379439029555,-16.453464388749335,-12.902859426960667,-9.682878741000694,-9.066311003609306,-3.7719701548455262,4.167355267573527,-3.7389108950130154,-6.200657660020344,-8.314614487074126,1.9669196881564646,-15.288621412982,-3.3759951138977646
-3.9010547303953578,-2.5052363227677006,-12.804967398960702,-7.209202265725976,21.050122775027912,-15.970382725674867,-16.509055892256264,-9.94197257528241,-12.19719646454562,-7.328982907793938,-6.067357586850012,-0.8269237587497917,-6.361005232980306,-5.467514640687948,-8.30914676021573,-1.233621784292536,-15.72055888538885,-4.589078424261312
-1.0996648902814217,-4.72609045905362,-21.487938944923272,-11.083476584545348,20.603760740661478,-19.803449636644118,-23.40306559527974,-8.349497724443374,-8.9510178538331,-11.551830954904197,-10.61004676907184,-7.2842753010845005,-2.6363766417245453,-9.03503398976542,-12.698596414629396,-6.582245169577181,-12.446433079441379,-9.904164606655801
-0.25287958558447876,-5.873184771088878,-23.336280143447336,-6.85258244718829,17.62065790703364,-14.362494227714798,-23.951744683727483,-8.809067293853031,-9.417165547409049,-13.141011505946743,-10.661657903412323,-3.0950919906311674,-4.869906464844184,-1.571017330950582,-11.912515300878589,-11.14920920157903,-10.739835270991934,-9.45784773949693
0.006468639656036057,-2.528465933163776,-18.935925991123458,-5.844834746746506,20.40180378200844,-15.663467541900635,-19.131715369082094,-8.683949476947664,-11.154216642255028,-10.143405388270674,-6.222194882128033,0.21705888118542704,-5.248980781886714,1.0062587607368716,-9.564250225109237,-9.270356359653524,-12.749306264775486,-1.9806031117205978
-4.227970147682465,-2.602177822311261,-15.904167954912623,-0.7359201255897649,17.52132196380803,-16.57743394319955,-19.001768407522302,-7.876512638290405,-14.16219049202693,-14.375632893210792,-2.467521447249363,7.535108781900091,-6.019732108033942,-4.330658663566009,-7.60696644708805,-7.977035806506839,-16.61941668668522,0.5156412618488758
-5.338931924425745,1.9136479552792611,-12.873784602112178,2.7123374642008473,17.963801342634348,-17.39744374596557,-17.1165351945434,0.5469177491079948,-16.097319440380026,-11.482038029326825,2.4578563233657116,11.53477003919219,-10.795500519562598,-1.8589344842658564,-3.8922041781985417,0.5433793332697725,-13.951665696475525,2.6207731329444006
0.6775116084988819,5.061923555960864,-10.23539303245661,8.894518897621907,21.045712146582247,-14.803208548651373,-6.835330383566254,2.035314471234263,-13.736914925753506,-6.052564439208087,6.014834415109201,18.173205979386047,-9.712857151803972,5.393982306876907,-1.545021638266384,7.3063841688017215,-5.136746148761462,6.385578961858899
9.622039280136324,2.155112334245146,-8.574925056230239,13.025377312832747,25.88820674790455,-11.529217480520533,-1.6349618541121966,2.448119099241458,-10.108382517112794,-4.8256240707829425,10.937827145238094,20.22378331354998,-5.701536297123267,8.443522598185933,3.047906976506604,9.382253234953367,0.9384286653300009,5.0716485577657195
10.752262072150806,3.056681475880664,-13.165883263896953,17.741653919127707,28.878018436509514,-11.091219210556062,9.12922554883638,-4.171812250208642,-10.192281356478242,-8.582504723199103,14.19944252251019,22.96005776033749,-3.546768511791715,12.758464880497037,7.738100749872595,5.7944154060125985,2.12533251541406,9.61662266615275
12.5643665562131,3.1767531513723437,-13.754188843105458,18.062786001723417,29.331610369928754,-8.411078873680374,6.120961953971779,-3.957101103788404,-5.4924012284619526,-8.143402680318344,11.600396030393402,22.08512474449816,-3.541527511120238,14.823077648172486,8.52158164504611,3.281260564342673,3.892745927344878,10.254701105122164
7.929301706561675,4.566176361408784,-13.367214947831684,15.746594711074279,23.440395712059345,-8.078775458999889,7.113919914857771,-4.329755223849328,-3.9190310566555207,-9.660777387432423,8.804835261532789,19.649831013675815,-3.3420272376520903,8.97316124494976,7.644466930803906,4.87018400597555,-0.20479181066258256,6.302253520066045
5.343255788618082,4.197598096334062,-13.665125708348395,16.457210591125282,24.09525891456181,-8.04355919123011,8.299412563108202,-6.461685883580381,-6.839389986832574,-8.056446115886063,9.426095622055986,17.80267924829902,-3.534213055664684,8.197146552027126,8.036477989405775,5.190014917100459,0.28205072706000145,7.720343239950449
5.196825551568775,3.4382641065184707,-11.034566659297292,12.381995830502724,24.460218684142202,-11.430538074159482,7.724251219734455,-8.692728766995018,-5.8549219797131915,-7.627367116569934,7.897685305119182,15.56712262036369,-2.8485324917798875,3.6081328714457186,7.35381816557761,3.9477845174877775,-3.1429934928351546,8.74713745571684
7.587635487642977,3.167131873158553,-8.698224553407321,12.798416925434458,24.242360124584685,-12.184990078837659,10.075974641570763,-10.143980350315736,-2.6258170777707885,-9.447791128073748,7.246994002055924,19.681573936524078,-0.4060632663149466,2.2374334029996055,5.791791976783799,4.366202223542562,-5.304104721678614,6.941166565021307
3.7264567495629737,2.3100044847825636,-4.116978922785828,11.456359476128245,19.633087552494707,-11.381205737413229,13.59671182402591,-11.69437530106169,-3.988124418091327,-11.369261364617161,8.841230195639165,19.891997374663827,-2.9451860723769867,2.2295092937444956,8.623906357668442,2.2459887590186276,-7.568528603071762,6.306371876045796
-1.6991703066941262,3.99196824536458,1.8302703065259767,10.601932266688065,12.87858308612819,-4.917612878548605,13.110571928706094,-9.437617888263572,-5.742567390210799,-10.462057009364997,10.141293146559722,20.788331764806887,-3.4345394948217494,1.0452198555052217,8.135188736799378,5.888055150548061,-13.549635572986244,10.358406078685078
0.0022631366756229454,4.209094798292109,-1.0128616369439332,15.020345125157352,11.889175744852167,-1.5834585483197845,13.695727888464361,-8.54958108380749,-4.7641034351926095,-8.484026654107813,5.971323526708244,25.49564798567947,-3.4366425119108674,3.0791263422327564,8.622568516249709,7.186811654626412,-14.946548507074045,10.796335411159971
2.7759483053743734,2.5707925224199677,0.8304140126066919,11.039494804816105,10.70779348549759,-0.6951865155801986,9.004398084799433,-5.905228821542959,-1.2480520916271356,-6.411754845567403,3.557995413859876,21.31846116845782,-5.5882485150370345,4.620200015647942,7.351617750238058,6.7282069823336395,-11.759294898748543,9.866262176314365
-2.9486009980020285,0.34665171081020363,-1.9173670521355781,15.35883506742532,10.213404179251413,-3.0341041659886336,7.044489735475114,-5.508538945106677,-3.202351065776278,-4.831193042133748,0.8504979958522717,18.022564840061616,-4.420517746798082,2.8363342855500324,5.787191268568448,4.512242996319563,-9.554390107107153,6.200952447959704
-2.2297769209955884,-1.7796834702614086,2.658060806375479,19.57978030096816,11.870920312980694,-0.7876352669186222,2.151827468163697,-2.964922533496635,-4.767537945360849,-3.156397690755316,5.1731639534626614,20.97915239864605,-4.132726018259254,0.16894306421180705,5.784774820404139,8.449198114381215,-9.69906331757688,13.081833505418945
-3.1731969558328093,5.176339354010859,10.162120912733783,21.553840123877535,15.778044259159078,-1.5731240412742,6.63126112099105,2.604531792925746,-8.189741756167557,4.0814638989117515,10.861846985939057,26.965534306012017,-5.896758503862018,3.3563834138003763,7.051383841426294,18.929704380445855,-7.2127872359769825,17.81337396644807
-6.3648312231519695,7.933308086478171,17.958076160081408,24.406042006790585,8.067419873151639,1.054802354426613,11.498254203825557,8.953688822974915,-10.246257108959398,9.362747108752629,11.37348160647205,33.44262342383887,-6.685216873744144,-0.4921907382602724,12.02845047300464,24.723122393387467,-3.169811065535253,18.247078632138397
-7.703076883785398,7.27252547308548,18.33098715724906,18.565907114210347,-0.32324459389399607,-0.22822210982932667,10.795661191314686,10.32073578378677,-7.2260889739550445,11.027273858468007,6.3174404517478555,26.347717524404725,-5.228541457288657,-3.857155092564685,9.582980972748926,20.067645848491726,-4.113214047329512,14.18760739045339
-12.461472667419006,5.2448451289268725,14.894212531085593,19.46333802984929,-5.194626479811895,-7.473043010968766,9.211031253757666,12.272158832231174,-4.500411243396946,6.633606276331454,1.8461652638147052,23.161562725599726,-3.6751928417498765,-12.695650755951657,5.965059354022368,19.221304838896796,-5.648405099726366,8.955299097511572
-12.827418590666758,0.5807577372191912,13.897870016189405,15.184070078566235,-11.234258912909524,-12.281125246210117,10.357679442455693,9.143805074619749,-2.9481408829115896,0.7716659119690057,1.1823661197331046,17.82938809242391,-0.9509255602820188,-21.05057175582221,4.885668415062458,13.101929259007342,-9.630885066763877,6.065808455307112
-16.125262809093705,-2.8133855718429155,16.220901729105748,7.974210926115633,-15.610030386871152,-12.406368858080166,8.669094262384073,2.693510927044178,-1.0067505065843783,-4.507724793931123,1.4939737716306443,9.276965803076175,0.40517007982863706,-27.06643437472685,5.075246254815897,4.932223984569374,-14.986419130205526,2.882352948033447
-23.917545181851338,-6.402409168447408,11.804582949440626,3.888520168971483,-24.181369543170007,-10.485558415445624,4.73120288035574,-3.4653890766500726,-2.7778608417407167,-10.376446686136882,-2.8831549034159663,1.4106111993137205,0.1977901264058035,-29.96198716067563,-1.2788375484573287,-2.358079572172313,-18.980587418003832,-5.185004284470391
-22.336880955369253,0.2631070692590649,12.953811479507271,-5.666903504405441,-25.61994395602933,-7.2999789488676505,-0.7724087552458783,-4.3523509881214215,3.8480930281913057,-8.631235412328683,-6.577837778024721,-3.425885748939173,4.2864110880876165,-29.737237665608898,-3.4342426995727307,-9.159613371159399,-18.293020134748616,-9.93303563704283
-22.613922882221136,-2.1530272966346105,12.83256806071135,-12.000541238822667,-30.179782892924194,-7.830195846491483,2.216989408649658,-7.487020546166152,2.2693011654476454,-11.283976681383926,-9.785383272569376,-5.134864568553983,5.053741886984211,-34.49778292016359,-4.516027889995897,-9.319940953745618,-22.884796653378896,-17.123569788324883
-27.873729539623618,-1.5412102098425084,12.710425850635314,-16.577278941576974,-36.98193429819843,-8.56054864546902,4.812526900490106,-8.963086844891343,4.400014464880762,-13.158791788025935,-11.919837221277492,-12.603178296077314,6.796736275558104,-33.0129844252598,-9.114117777688293,-14.362676960666992,-26.798781209438765,-20.115901815327685
-30.889637276915106,-0.1475272586154437,11.708487689630156,-14.61190689030597,-34.60041116980313,-5.291770254468645,7.893108336525227,-14.347038726628057,8.091769919324474,-18.16196971012894,-11.809298328980615,-12.06108561651304,7.659910892445918,-28.017257516791005,-5.997882960628468,-19.990882229388948,-24.663780984687577,-20.570234057153783
-33.6148082194115,-0.5110371097137942,14.612005295875074,-15.57724511553333,-30.945459984326675,-6.520097365835884,4.13438924751903,-16.0215690745191,6.606191379675316,-17.21131783983592,-12.578805156485302,-11.907153532228936,9.10814603854463,-30.93655338242566,-7.765182452396774,-19.75914738087235,-27.124469054095904,-22.392896183976415
-38.490691378139225,5.669210853223166,17.80766467212573,-14.590425496337769,-29.239756572564744,-4.823552609638666,0.9583450245783127,-15.060908610637817,6.87698692853095,-15.385013747686283,-11.00564242622723,-10.090572103836301,8.602355150635066,-31.809775090053645,-7.77530026157052,-17.183152567260972,-27.930725969466657,-19.33381216104576
-36.82575156211915,1.4008126640637775,16.705574345940732,-17.901561896220578,-30.264534099697357,-5.963951131216104,-0.7561164168631702,-11.367394151755159,6.951010877127809,-20.00736089464282,-10.605478184214899,-12.95909824669548,3.9940830933149725,-28.87907284782553,-6.321219731128763,-17.145786313879274,-29.133336731328555,-19.693908469893497
-31.452065086752874,-3.0621260451202037,13.063595872971868,-18.967603792085225,-30.21111274618842,-6.230304896442901,0.5535181483143847,-9.921563991096253,6.632957410971697,-18.480481633215568,-11.866589772045344,-16.70408505678673,3.584253380692269,-25.855427284885188,-6.23502521598453,-17.303264365222212,-23.603255326003392,-20.25049746185074
-27.740807684927518,-0.6882049810264699,11.66698066853179,-12.515050820732737,-25.856759905777785,-2.30225446447578,4.4966082866949675,-12.28593452213245,6.899414121005002,-12.07389531194669,-9.124816130859523,-14.977785496442515,2.0993640911374802,-19.61377420501766,-4.294020936095997,-14.139909555701026,-18.66477786706845,-16.31602456738225
-20.027828639126756,1.1006306814677513,18.765846165027668,-15.731682359116231,-17.006133666040792,0.05839211999366256,5.701969977798653,-11.819770990376702,5.992552371545099,-3.033696597297201,-5.895822993943912,-12.95606693213955,3.9340300104096686,-10.544725058608382,-2.8420020397483565,-13.612845470663935,-10.509214712525765,-11.503842289281547
-20.325026400508822,-1.6018855286273732,16.879478858995434,-14.359484941393292,-13.034351380818581,-1.1991767359388543,3.3883341638577766,-12.038742660625033,5.377249423715101,-6.301484313890466,-5.7929330468491465,-12.689750074596677,2.740514933568052,-14.957099962795422,-0.8047424987539069,-9.862609085528897,-11.246084521796591,-11.966403517766514
-17.108782274458424,-5.084716306214689,15.383043709117274,-13.476677108223525,-11.89057552870555,-1.0944130301778738,2.73155512862355,-11.477973119094381,4.565228184455238,-2.1503575032741313,-7.4489234351348,-15.253079225911911,-1.6764792993826196,-14.002929635625598,2.013064336538978,-8.065061950870138,-7.30091699907139,-10.281734394348662
-15.066660686255544,-3.2930385514563425,11.835119050749876,-12.692643391812824,-8.203606137065828,-4.217225011102974,5.684782942054058,-8.477269566447928,6.681548372123249,-5.424253210135888,-7.543415705264635,-12.931103035582863,-0.43008060713506646,-11.881468549039923,1.4121271027888995,-4.313895719161352,-6.876914646304677,-8.110030013784925
-14.589283785396447,-2.7698776252820556,10.532667235288677,-7.417484921117409,-5.000809594377497,-6.563637533922893,4.4353948896408495,-5.282747932342658,3.0346835534605194,-7.626906608871882,-4.513869927951239,-5.137886113228939,0.22963377102554805,-15.135754052728497,2.470640053473875,0.023680057242455144,-12.610785572174121,-2.7168862771657794
-7.668706397056079,-1.3667200140210904,12.74526063247034,-2.8270762479334133,-0.8172969500281067,-2.664807113496277,4.54987990483836,-2.577999458605996,4.952944408920375,-3.387098611146584,-0.8017127208575809,0.11862489646031449,0.4003400984093548,-7.749882674966811,2.6494940253970647,3.1898249338842946,-10.146787945673378,3.065610619602751
-3.1917707586535435,-4.55235594819427,7.828227296759965,-3.609002620906518,2.7844300951099834,-2.9700996925021617,-1.882039948669808,0.7112247483134251,5.795617799811874,-12.529305168327609,-0.5085514860578928,3.7173368234971838,-0.3085736761857092,-5.8373446394469255,2.729943345130375,2.0594901727699764,-10.617847008354888,2.792038992825062
1.3806380771718345,-5.29538495016162,0.8597914481865843,-3.7084972612557694,4.241869132080068,-6.112292466368119,-4.703959390827743,0.8739450941275315,6.051005966200121,-16.10787751293794,-1.876528421064588,5.169947281662589,-0.8228531231042535,-7.347287735360895,3.5909004158075684,-1.1211971883140528,-10.703539411554047,2.8101420179637504
3.8024073345044833,-4.86531450062969,-4.644346508586689,0.29244824675973646,1.9925170426525347,-7.989743741460879,-2.6463261817771526,2.304775160525372,4.840203118123975,-14.318082095163476,-1.9758920477497417,6.038965596757565,-0.9471631025848268,-11.303092168435231,2.1073106432318527,3.804166907745039,-15.09137350466352,5.951985130160292
1.7297679950049023,-1.4066044601612018,-1.7504652121458175,5.4640898383686896,1.0169385877192445,-6.55162222815515,-0.3967088960188656,3.3435493504090594,4.7023246868585735,-10.284915756327077,-0.3183336000710639,9.937712830528035,-2.439322913773421,-9.403804954456177,2.3807925643971424,6.874492117804007,-10.597488257095119,5.967464840580847
4.440223568728811,-3.708408447433226,-1.0055787085262127,3.8961393376545983,5.905066857067538,-2.9697999499655836,-4.888802775933392,4.7715462455727256,-0.4173947265401181,-5.375534241548932,0.45940879207547614,8.955895926360938,-3.150841894050501,-4.383795112640556,6.852783508033074,3.4998638754168225,-8.159481579292308,8.911353831932999
4.218832188031524,-2.0049095572551527,-2.9956114468688106,1.8386815323072332,7.867723831152996,0.4119602705791383,-4.30601558130403,-2.200413464308758,-1.9250592115610117,-3.007904107207338,1.3339341693094502,4.656021865598673,-3.5699880163064956,-0.7352684015794928,5.757503673464655,0.3210078005585004,-0.3552934261752405,4.431925363871072
8.78057628893231,1.2624914754588845,-3.4236007417533685,4.858197680605866,14.326915644194667,-0.6055993989642143,-1.2850992165142743,1.0803164975850965,1.8395278683597747,1.9938909100114124,1.6216607720336005,6.022585152765566,-3.20845151225495,3.0066941009742862,9.641983611563528,4.076307326036481,2.7564035058817673,9.326305382514812
6.992495778534387,4.140682473002809,-2.484839802124336,3.579535459981283,15.809858679386128,-0.6512762353525581,-5.396503720532112,3.77374546137494,-1.0378624660504636,2.6962089381431085,1.2249540604673888,9.344573376762563,-1.0896335821926524,6.353858995109459,3.955215076043506,4.316383695934398,6.74217761872044,4.941861100512298
11.25714721264358,3.9929469122644594,-0.37462166103471617,-2.778575649933453,10.754045568411584,0.5679319885414902,-9.413546394614706,7.4424162974879415,-0.5961251519121626,7.595332643013567,2.3899660342040656,2.7077232885647575,-0.045586970820756356,1.4936647991525227,2.3692771565242126,5.533492474988886,8.672376530296447,3.3881488217479703
13.273647471768584,6.971764697467404,-0.120313616353668,-2.301899271241369,17.421489495229793,4.223949121115552,-4.644676986451239,-1.2927618543734605,-2.890024270526807,11.90609358149641,3.6518553409709473,5.155274629632775,1.4862341941809474,6.297538065058436,3.6146151557704242,4.30961236052962,14.601862492270278,4.958139252771365
18.120225030424773,3.409061625104805,-2.503154720667026,-6.123425008039458,18.6244432872924,2.308873366697261,-7.887013951973905,0.6154576962971579,1.846230225332472,7.132330690066754,1.2996533764791791,2.624492634879193,-0.30279962226562684,4.7496718429451725,4.566177788029821,4.648710389622544,15.936839210504342,3.5970509637678925
17.49599912236368,4.047230956326146,-5.08167835731801,-11.215769443132901,16.999680347146516,3.1236474310167903,-9.472426686365543,-0.9932769047381615,4.5304847494112614,4.5047478745321,-2.1275123252584165,-1.661938020509309,2.302295670792282,2.2213065498383067,1.1223368608782764,4.011685105569919,7.89216466750279,4.6760591080604685
11.69397123807653,3.3198231066371724,-11.46919753138958,-8.69208404023969,12.058925736271743,-2.0232308964346277,-10.572792243531701,-2.017319688063081,5.260413489072717,-2.2266850247516405,-5.262406343835453,-2.9188093474621812,2.270185682498094,-7.244613025782746,-2.322311909983955,4.742322161530271,-4.063238089673597,3.409934866589321
4.034533906463354,1.3245371600189924,-9.458471057112723,-8.415805650747181,2.9232729190048774,-4.049553282774605,-7.184125941471996,-3.5308845243676066,6.7704498035665495,-6.5188328302887415,-9.765182436366388,-3.001640178347582,2.9212567456096785,-11.929088951056828,-5.670112837045496,2.8366542129027725,-10.94476507791626,-0.49429351519823816
-0.3064222141335762,1.0888041287252477,-9.79182637279916,-5.699367119900915,-0.5438338384076555,-4.810776482139213,-3.701007231605677,0.716145582679836,5.154300899178901,-11.594333039317766,-6.651299919811054,-1.6174795182146386,3.083639405489606,-15.250070883848004,-2.866287524379073,6.693247033284333,-14.510161496066889,-4.692837773159187
-1.0358924305017387,-3.0514841389489495,-8.367614088720313,-6.499894238041108,-3.9088737995388367,1.8455792214532494,-0.025757992296574272,-4.8037880959559,5.197213020464148,-8.663919812980467,-10.960021423137015,-4.528156680612435,1.2924912366617898,-9.394866284923681,1.010960629742257,0.19857375220123674,-13.978069124160552,-5.767673449427506
-4.0133086601094865,-9.045474630728584,-12.803113288556746,-0.8563004199446724,-11.761749387886873,2.3451317843557717,-4.7522374409131185,-4.6607403711436195,5.922625900347711,-15.403573632432565,-14.097435704015528,-3.139813563290211,-1.182613221755545,-11.746477541556542,-5.366666539140687,-0.5338381131153236,-19.016505821856295,-11.72673061308852
-6.406562953417701,-14.646999176607904,-15.676310717182943,3.6141084290603054,-14.531991241636419,-1.6518916577378722,-7.724017149119227,2.024230927745797,4.986771058255509,-15.99266889695791,-16.454142861634757,-5.655723717859582,-4.146334339894208,-12.734368787743517,-6.2762725538615625,1.273306560771373,-22.30104061217216,-12.706571802262062
-12.610219160275266,-13.605922599916724,-12.201951733957783,-0.9012883415868758,-19.153288591926426,-8.192289061931438,-4.8394470332468265,2.2626691012897684,5.90534456347222,-19.610960313027626,-18.616057733069,-6.997708353158098,-2.422787516795765,-14.213957835749337,-13.827416233857425,0.5418060006074679,-24.222202002821202,-18.375306482582147
-15.397569107840773,-12.367616299366091,-2.3800105865351777,-4.539059682052659,-21.231033300157918,-5.850055936097143,-4.008777498804205,0.351537651376975,2.135295386774272,-15.223049258923503,-13.942421654559132,-7.654080149129534,-4.019882854724993,-14.427324254326283,-10.051071774050564,-2.240050200560526,-20.775918279259553,-16.81868243631591
-11.350555568909371,-11.908618604036834,-3.0075924413159245,0.9040446105274214,-18.519087977195955,-3.1213651522167147,-2.3022482451442032,-0.8770658584618749,1.5869181706697812,-12.496976955292258,-9.659874346706289,-4.792788872446462,-2.7851579292990802,-8.100867171225405,-11.646710439781874,-2.287031692692405,-20.94659532424256,-15.165705650647434
-5.156712856725155,-14.475018866580184,-8.811152803697139,-3.9082072447615896,-19.80664031988871,-7.3304951089124115,-11.145785219564672,0.13940564436183234,-1.5015759342702224,-15.924923384317545,-10.065322629177833,-4.859269824036295,-4.187421195830183,-14.375419018133263,-13.243153531178557,-6.337521258841938,-21.218446521225086,-17.713306520493525
2.2074197005945138,-15.76983827856318,-12.661649723861098,-4.229494985342136,-15.523223317333247,-9.981168744332354,-11.105466932374148,0.7642165045931595,1.6590276276670108,-15.545722035943344,-12.228999876222337,-4.337869002708372,-4.125022389608442,-12.64511032743523,-12.691927066615667,-6.383582705767215,-18.173341316669617,-15.965250351846374
2.245657610808058,-7.101500182843349,-12.21527012464702,-6.5052272245699845,-14.848656495882484,-11.659277306579668,-8.919644698658239,4.415411021027092,1.009999687112606,-11.945241446102436,-7.9476208436775115,-4.693477318617429,-3.2815403374993837,-13.066258183130667,-11.067261772806253,-3.5971071866369346,-16.791713220830736,-11.093417594807953
6.286338422034984,-7.806199831868811,-11.37829590384833,-1.848546641307963,-8.407789182275158,-9.7280051328297,-7.0297277173846675,2.8897624488080504,0.06703707313080683,-7.369530909936019,-8.647105430960925,1.2028953127462136,-1.656949522157292,-6.263630122661377,-9.736360873391492,-4.618819065451218,-11.702273794423892,-9.543205541912144
6.51688337282495,-10.266596724366398,-10.443672182683954,2.2209044725894636,-13.09540322705033,-7.117026300403265,-6.412257539872546,3.4139669856655797,-1.0721841734021011,-8.654552754794384,-6.3194826543128,4.073738520846234,-3.0598761411818516,-6.104534393705517,-8.210929801255531,-5.83537974549753,-10.71752811938576,-6.041081551686218
5.378777140022791,-2.959041315227796,-2.6729864059150388,1.8944786777435247,-6.450211633915747,-1.384837771909135,-6.871881296581538,2.960658083736303,0.3267710864625837,-0.6632770938423072,-3.894447860761108,5.872181964739907,-2.60740738280125,0.8878893594691775,-6.783935180052714,-3.242819415265159,-6.220057038911104,-0.8800030635580871
5.411162831431542,-1.704051898922372,-1.3476623675727437,5.570746775806464,-2.7302381331314116,-2.9807568437999237,-7.041351705181212,10.221397949858448,1.529504655914319,2.932293228425083,-0.5907017397626451,4.059099196144442,-2.05735664172703,2.3112016403547067,-4.869423241739542,2.084629510877983,1.9855715465576402,-0.6030217910960367
1.9265114437165263,-0.9351023206771285,-5.784066651675348,9.734035991792446,-8.380887685503335,-7.119492030385359,-4.283869340011897,17.383590615389156,-1.7609053943703363,2.7181859628761558,-0.021542788489196774,4.005640683120905,-3.948799125441668,-3.104053468111113,-1.8814394895010813,6.533633642562682,1.301626866184197,0.8446601112844974
3.71406274132889,-3.1912595399109467,-3.7749521459323265,6.864706922645134,-10.901964115550252,-7.062595767742302,-2.31038637394456,16.732297731145977,-1.1458746682519707,0.7452954225383355,0.7427995491408241,3.2703376746873185,-4.180083618845269,-0.12317267721901004,-4.167728250710606,4.928336020704035,1.2010284016622386,2.974772966992199
6.379262169080764,-7.593570335993499,-6.648586762705158,4.384755122667587,-6.875441541842675,-7.009286158056687,-6.687350544300972,11.587905436498163,-2.191875504355274,-1.4237723950796912,-2.7898919923722065,2.927400084843349,-1.0910023330034464,-0.36733019555810387,-7.62665493640382,0.1008146572835188,0.12137187314380427,-0.46275851588216543
2.793139018358114,-4.962174344029545,-11.279892537026313,-0.4402281122349727,-12.610158064257767,-8.13139017700523,-10.871648326413773,12.888103430969197,-1.5785257860435677,-2.910015362874489,-8.959396655968982,-0.44121817005648367,-1.5175708102715744,-5.594267518352472,-10.012081303914893,-1.6011735041482749,-2.620826570737604,-6.049892316768824
-3.235609981229186,-1.4494772119962716,-14.446133440257938,0.10472742597717577,-17.75438921206579,-6.522531179539136,-11.44521240985462,11.160113533997416,-2.3331964058362034,-5.080559140880247,-5.851430611682639,-5.761307049115251,-2.04174183478251,-4.084957124134709,-13.472466706773156,-4.962853601751366,-6.8301304596870995,-3.1419126201601433
0.20730484709766817,3.5304986261249693,-10.580787371826197,-5.308666662391454,-18.597137347607116,-3.549849404862224,-7.333759793393888,10.017294535140524,-0.15892764909299661,2.8070305493954404,-5.380198301335638,-9.419555159967278,-0.026730085782090907,-2.089394881733778,-9.609233861356476,-7.738093181829953,-2.350013275833822,-1.5045702892203208
2.2819202168262924,8.415259552429317,-5.836260756330508,-8.086519067065158,-20.314259708639433,-2.1430079029119664,6.052672605396356,8.190117993784778,2.20988300208447,9.619854281484486,-1.8815106570569986,-13.17382668065483,1.7930740578420563,0.29486168108124033,-4.67246581268504,-5.6299469385881284,2.323423578050825,3.2567571285026826
1.3281008771053378,9.493840719671006,-2.7516233612425847,-5.689717642789724,-21.73386096931098,-1.4230168797409206,12.307635155661046,8.022391618910802,4.089650698039108,7.643033544601522,0.25007440080164933,-9.602158050698465,1.4645421280924178,0.8217853821849452,-2.3731436821519014,-2.7400349025851902,4.162912484664588,0.009112383463094176
-0.21266290085916317,8.328794257092678,2.188835185000098,-7.395736076489515,-17.28944806958091,2.125873366899226,13.774965729424675,4.435934623247651,3.527240053148652,7.423687169971398,5.1162225504947365,-13.157919308868344,1.5268016749078988,11.308064164135004,-0.5627835168395725,-9.22475667219248,9.711644589493858,2.3269474457103385
-1.656719758350485,13.318713069335413,4.981179490773497,-16.427267442144526,-8.055254881797282,0.39814233284897504,0.591286057902737,2.7042864202467114,5.600873054330599,11.305683679689846,2.9512005371033574,-19.641851911505032,2.272852178540693,14.273064388641806,-5.393808624965699,-15.51364801299563,15.35640618460629,-2.4852168631101432
-3.492310834379258,14.40487609905962,8.555173918388215,-14.522301260815913,2.0624096198189186,-2.016223452511152,-3.610175901516828,1.3626020929825895,0.8377684877369064,16.066400198686075,3.813796480585781,-15.772527244748728,2.0425382522470996,13.427882405411964,-4.951959754504118,-12.719848544361604,13.675331710709479,0.31896619129373605
-4.547495327798833,9.438838125271507,12.8131930668237,-9.493442952386996,3.2001136366961447,-1.015525399641886,-3.4192777494189706,2.754688323442754,-1.6798841559976911,17.213662951119183,5.946212031487967,-13.268897914690232,3.4726449938348614,15.901635765805661,-6.65920958316879,-11.195072365374148,17.754680946803827,-2.639584898378161
-8.337903632862933,11.799733457521372,17.852927174346423,-7.688431123134338,3.0728178795728995,1.1541826781672349,-8.308762766826803,5.51335739687837,-2.5380115830547147,16.505393183932068,11.106327534262043,-11.44738325925657,4.2194126555922695,13.686492518016799,-5.534997190958336,-10.939312794839813,18.3170909870696,-0.0325424812031585
-11.054835329443346,8.987394083022155,12.834399722657922,-4.126705821095358,1.778178572401334,3.2234250204599295,-10.758926140023979,2.8025878749614934,-7.596058391086337,12.379148569223716,10.99327611057073,-9.136113633552032,2.427370075749745,11.47012707122833,-5.778588649625306,-11.073643169535165,11.84700530196352,0.2298471739792145
-8.889589721949962,5.396439815954617,10.062518727969527,-2.51924527616833,1.952952386817751,4.6063306444281125,-17.410434081841636,4.09520064308941,-8.650754522884993,10.499159078618277,10.587643516590104,-8.38592452650046,-0.9268795738453937,11.205797181334955,-5.046180880342827,-11.988687134634734,12.797891160169002,-2.340673079236322
-8.5805018044912,3.0777034608110005,8.170108694227949,-1.1081935932451108,6.819841599938069,4.912344589712362,-17.520873785582406,-0.37455850303858584,-6.776315161546424,5.884960480474517,9.59649748270788,-7.146026044313919,0.016153740150654294,12.698290322373357,-6.072172751510907,-12.805517409965827,11.208780316327577,-2.5682106032160896
-9.150944887022298,0.5663379032303237,6.375940661751761,-2.237319300165773,10.71469326208943,4.141543344777013,-22.125507242047156,-6.309729472234569,-10.957232371802286,4.689070336245386,10.558980113360318,-8.73680369998769,1.8384745778269012,5.693646668582971,-6.708075607113347,-14.403045746694563,9.423579214321098,-4.944988194212316
-5.4250092744649505,-0.1844843663690292,6.535544740837569,-3.074530049560724,15.49299950225944,3.8565276755237754,-21.263181083408078,-9.999298900450839,-12.599604928708304,5.349044101238171,11.033688646516277,-5.931606768579304,-1.3193561786860526,10.016490227274453,-6.563239619928602,-14.046847234718921,8.711958502035571,0.0994867548642171
-4.726975866465943,-4.0576339928727165,4.2543557516875845,-5.279988908142449,15.588263250505857,5.0339522901340334,-29.19186029619968,-9.685408514825149,-14.340171665476309,-0.14297430442105008,8.96985113416652,-4.2969481800365,-5.1603728616597735,4.377536215637342,-5.149356753966921,-12.322859870379745,5.167727861722804,-4.720170880810013
-2.2715656800871034,-5.095973816613096,0.3136688147471197,-3.8731319969752147,18.422465892933953,2.693350080281826,-24.817406769892855,-9.7626379628539,-11.296025375960632,-2.4117639516045406,7.785528904640344,-5.004742255975113,-3.9227439045535863,1.2770776871936516,-1.0991988697733222,-9.719363672382666,9.338041696209737,-8.173285316948977
3.30847942911117,-3.397147942893263,0.3776661255802214,-3.6391688516208776,21.26118282775399,2.9872365951926856,-19.17507777119737,-7.98484085912839,-8.252375090829414,2.6443773366187204,6.3088693055681775,-4.051042791149768,-5.223748357909631,3.6449488516336617,3.0481529811446073,-4.380852682233506,9.797061977245475,-2.740174124415412
6.153744861803693,-0.9142989421165333,1.5166488118129051,-2.1366356556440738,27.522426041003865,1.4234339412939727,-16.561745412468667,-6.500469427943228,-8.82253693653558,-0.9903435647989709,9.715772578687579,4.716566998535487,-5.938314090554965,7.281968520913171,2.60514785036089,1.9348428611801687,6.544905294863721,-0.4327021510552971
6.75256911412961,1.9619530282290656,-1.2498944810165815,-1.3186663356431687,29.784197299096284,-0.923744403412404,-20.88364980950226,-1.1102230968759188,-6.756395279772038,-2.085211164152643,8.338162230770237,6.649405538887919,-6.35939012619996,7.110035421662905,0.6968543579548374,5.419080335900279,4.171600971300464,2.2648471678552324
8.034734132541633,2.59485833073604,-2.160123634524517,1.256204032041726,26.190988473729487,2.9771373230560805,-17.687374949343294,0.47095408676013983,-6.057897214980809,-0.34717779591403747,8.328515420030918,7.802232451695346,-4.436139992828043,6.644928933160319,4.9405974992388515,4.802318494642632,4.82573369635503,4.2782773200452455
6.386953182494622,3.2305528506044956,-3.2648176870970156,1.2910568258265842,20.64909700929004,5.899484910119213,-20.058986613132635,5.37209424236014,-3.797290320608567,-3.4911314653102807,8.612636267970089,6.319530689815938,-2.121694850499292,0.9062045087615767,7.914410588894137,5.162769301490615,5.480026730350702,2.287264458479342
2.395222226570982,3.2830964972735592,-5.247547264264444,-0.4328235841854271,19.70157823130266,4.230040572622132,-21.162370730349465,6.464199082596567,-4.955099182434052,-1.1652792802341119,6.65146251402901,-0.5331361759257738,-2.834052267657964,-2.0004458063887993,5.126059419100226,8.94188581112758,3.00954431942699,2.9325748979371555
2.3096859908315057,3.533756003485772,-8.303594243860626,1.3581037031163063,22.37184037038066,-0.7615664742071262,-15.626278535147025,7.751252337719044,-6.210940554025655,-1.0845113519542342,4.88647635302842,1.3069270065667014,-3.7411147710288306,0.561835946269114,5.75539364835655,11.159132875156676,5.617647220930523,0.8430735635634008
7.595259735429382,4.8614542772236335,-6.182829612276577,2.3669215201398757,26.999686375353093,5.28043011082233,-13.900014436904774,3.8620943154411047,-6.099928355831047,6.3217010854546585,8.395918661799266,0.023114529137534756,-5.428806140993482,12.792430877243946,7.360992080288932,7.517579548179045,15.452914888894997,5.100971548896361
5.26351294730588,7.070877494539708,-7.967389521303509,0.7381566481341206,27.13968883567625,1.1643791603515528,-14.71395337525506,-0.7110033014614583,-9.11429878681259,12.166572734436937,5.949187403745766,-3.896303782648041,-2.818901601033823,5.882403188754751,5.9389098740478925,3.8766998575477887,11.714356361459803,4.670986087687671
-0.19324966702552593,7.427608972874445,-9.94624613544484,-1.2820386197534885,19.471466945982243,-1.0977389885485187,-20.50946383991473,0.575043325142412,-10.175829669483676,8.637552212270315,4.089388930253709,-6.545036922342181,-3.1380520264451626,-1.3202065209074618,-0.8546160536819003,3.75218204369978,0.2615421845499766,3.557126985504559
-1.3529914938214354,4.173807792576214,-13.095943125698016,-4.4749015276929525,14.737353420238382,-0.9198997821473607,-22.204300490419055,-3.998679767967923,-7.136031216346666,3.5473252834517446,-1.675695365952139,-9.485627055739918,-3.847134696967979,-5.006650475737652,-5.695232358670703,2.163490911082631,-4.35441983851766,-0.389033008017583
0.41712714034428133,8.24713759139566,-14.975003248834634,-7.570856389015939,16.74598038562175,-0.7434688421545732,-18.13820582813419,-11.600083666295488,-9.663000412973618,6.271100233064183,-0.9943079185592953,-9.49538680759112,-2.7976582960488674,-1.4658395290966078,-7.118049971863579,-2.354230153952887,-0.6685607612040743,-4.921322281028798
5.410127132931616,9.588846195809035,-9.235639659764157,-7.542487826104015,26.278589016341883,-1.935576923907964,-11.143178081207372,-12.365722576280685,-9.651125788282883,11.926053919334667,1.3483587858265587,-5.402441073953576,-1.0638374004283595,3.4428559946955546,0.44344537412157736,-1.9883525334441454,7.998857355594925,-1.8364465336301754
7.082987183035309,6.245772163094395,-7.694405198545652,-5.659320679379641,20.385588656591565,0.8750289675080585,-8.250498077369864,-9.225315082576891,-7.100388585620452,11.234763484272019,2.910897688892444,-7.070239119285877,-2.551961545820381,8.742951792565638,-0.979747335608947,-1.426438446986568,8.17116567361812,-1.5837393092794567
5.8263851210606115,6.616472786818113,-8.788742343753754,-3.776825903697355,14.49687958545374,4.758693551524994,-6.920987981189565,-7.940654664812908,-2.401401327988683,9.666123379199421,-1.9708040308688766,-5.416628359859163,-5.211198641236973,8.672733260617582,1.3079013567659201,-0.3755054851753763,10.102524343517231,-3.967839969955188
4.374784093154052,2.0093991017603132,-10.077173970778919,-5.020024772367632,13.397667508199635,-1.319831292040664,-7.44754439134363,-5.777311854586198,1.9067528215135336,5.65766927413777,-7.827877161216231,-8.449560482610893,-1.4242259569136713,1.279136578712101,-1.1898086545074302,0.1878780029309688,2.5623887597198154,-8.988702868957724
5.950935470695923,3.9481526023976476,-13.708136822184624,-0.795009462983697,10.251886200090347,-6.32514486435189,-5.72846567209031,-0.489146343380936,3.8709367443650127,3.7993729390436464,-7.726586733422117,-4.5477811620037105,1.4846444185700376,-2.9883702037664985,-3.980598012894494,3.1934531183488417,1.4690640902485068,-14.302496125427885
3.9141583689453006,5.499020134555129,-10.794743110141194,5.773199283975653,4.668879480799454,-3.616445269334387,1.4590299758052225,2.357362490267974,6.909188593654346,5.458499154860037,-7.624019826746768,-0.35203324437399264,5.175611883806974,-7.450061570491416,-1.5956099595132187,8.738886323724389,1.9397548106497515,-13.561420061322261
4.807566294336887,8.517483381767647,-5.92687331820209,2.4774111230256715,3.38700544691792,0.5562471498584309,2.5914053106001074,2.8598837021872865,13.16999542507942,7.510055057577441,-8.49671912824237,-2.307743873426566,9.746351360857226,-0.48457898232162444,-6.437354203086079,6.570123434100416,3.974550303636841,-13.992100447658387
1.5998463220400176,10.17145071475911,-5.842878374474048,3.185052527743805,-3.457194328204377,3.3609323690883173,0.5984682455256038,5.3153686624065335,16.11030490780398,5.950126490477935,-12.590778308422411,-0.3561818997298136,7.872548858613101,3.357160478976015,-7.763456085322726,2.351321696533556,6.889933614969912,-17.547644681532834
-0.8260707512356031,10.94919187279439,-6.538757984688106,6.040653985869492,-10.101940493815341,6.555523519490001,2.7069667685637455,7.184726401661706,17.29265659151624,1.4623691603849327,-11.605255473059863,2.475246843960579,5.8043155754131135,4.465872663374922,-7.820020456848207,3.895108413941765,8.537519476808914,-18.368540569325397
-4.3256387964811065,10.948343830103228,-5.182404962265075,2.352704327197472,-11.66437395010438,6.038468647250807,5.9872432963299005,2.9014754597212176,17.40066977940883,-1.4609110540315458,-13.352736231780149,1.2059819050199252,7.643291710951182,6.943266190625248,-8.364863563785999,-2.9588808846138726,10.47991448051059,-23.290781786003933
2.234167133273945,6.848520845342838,-8.51217091482371,1.8870053956234685,-12.343805965474242,7.376331350973528,8.58387468494945,1.74311031469733,20.047695362590993,-1.5501154217415625,-12.36435392933956,-3.6757035520300456,9.483182033845505,6.980771328171597,-6.077599288476737,-5.026843688417813,15.158642559462685,-21.864941686376724
1.177338001109814,7.536552879772224,-8.129458024988908,3.1787190238301664,-11.651976764242733,7.834766552518111,11.180538227843602,4.490901474789798,20.54617567679063,-1.441956569350367,-11.276834751723921,-4.064232475929116,9.07787213292033,8.289462888503113,-2.9113596330748504,-2.6017458974659062,15.835397703569228,-21.219986572747693
-1.734278262072086,6.078714175430615,-2.959999319709982,3.2004832846493523,-15.448380111912368,10.245919554503681,12.31244002604732,1.9650293620067534,17.724231035786197,-3.2848602038704016,-6.183836723689419,-3.6706142298640003,5.157824215473055,8.818607527007993,0.2549583590755162,-5.156381270939901,16.70953837910958,-19.20739719937564
-2.6919892162938814,10.580569138881788,-0.6210670710665296,-3.5165071919717565,-14.455560436824083,9.33634238025575,11.296047091172998,4.126590860065537,15.585841294538199,4.737802997164813,-4.507316175072859,-12.065322457015588,3.9731456775868295,9.154229352226935,3.5190348317372893,-6.342989966912276,21.589789626884922,-15.534151195607324
-1.2074662971319121,11.764602616675628,1.5241287505283712,0.5085111958247581,-5.743815615718043,8.035836338185977,18.1901767406324,1.0145032460404968,14.326333741309217,5.535969435211217,-2.5362475318896855,-4.736279378668577,4.547270325816527,15.644157570383129,5.416025840000939,-4.110753027093976,22.07765646314766,-12.739300519026433
2.4263564050253033,10.509702617866441,-0.9189795692057063,0.9198787828630248,-3.961837047532221,4.684288026725283,21.471284515369504,-0.4375277894566594,10.820671787116972,6.336350936902628,-2.3214123849817394,-1.89865210242318,3.462187627992915,11.97962406708655,9.168658687039809,-2.8542626770504267,20.02870407319696,-6.525855237474506
6.842308901462426,9.354936927355869,-3.458105887081503,0.7450136459141685,-3.7384796602214223,5.141229076539739,18.112048049418444,1.0400538740058634,9.072833152800825,7.431957880687589,-0.835390360308423,-2.1852470854632133,5.1125054128785985,9.6843150235861,11.358934036548643,-5.600903133310661,23.353274951396116,-5.975935796924575
11.747455565146822,10.253425090384523,-9.413583807653495,1.839440956310197,-8.003506513101486,5.5980738527183656,18.464253987283684,2.908151838022117,5.957779803929612,9.79940289979057,0.26166684075856494,-1.5921117402247749,4.517687591753965,10.125509969811846,7.982905771174311,-3.6591301678603196,22.188000277872458,-4.058135561280388
11.380026519053004,11.935579438757319,-10.289160957185477,1.078141093632588,-7.967752031756449,0.0001076732893836585,17.352106817314635,7.119925086105777,3.331017725652929,9.337094187566064,-0.49507757847226225,1.931551759576645,5.6817092914897085,5.588316895521028,5.290690119491465,-0.056328761594690135,17.314202274216086,-1.358351729729499
7.69321253395569,16.354515952263654,-4.424627393012736,1.6838474811422732,-9.295396329855834,3.874975372152542,23.760181792527124,6.4487043536052955,1.8761592934876794,12.002185194264854,0.41008372970268914,7.01852035695951,3.624032656958587,8.86596748428167,9.630060655043545,2.6684043920964804,18.98600130181049,0.9515718883539428
10.452822749591657,17.553071897545998,-3.7341997174285604,6.976951196513465,-5.24808663702888,6.9686773016575865,26.653215804771996,10.660266475052644,5.694837060750315,12.618844994112536,3.8560984993771754,9.078865572048176,3.42286616710828,18.005372897272174,13.774364652234631,3.83146922778635,22.32056533138926,7.168624696331353
10.96735256050451,12.99210370171659,0.961976625744966,12.07459304010842,-6.470548008926533,6.351543210372149,30.328209242214086,12.918571767780236,6.388492117819776,14.800437253085311,4.178845218375618,11.628251338859112,1.4648785182939572,23.72911199980608,13.817312107541394,4.116473585743485,26.439026999188943,9.870866979957846
14.900984288082288,8.824004940532483,0.5817580281286387,8.382919562286734,-12.572180916189692,5.14868159287409,27.363231903116056,17.227589004062057,3.5664995240810535,15.128966308390872,6.847184066592807,7.147016920030346,4.293142461939721,16.076157669342976,9.954237639968442,6.843783812553214,24.7007095864898,10.718528491553762
13.366896087132767,13.15432229270008,6.453467764062635,2.44502689251701,-18.377156584389397,7.852408135835638,27.71942949513249,17.239565796393016,3.9672486504470887,17.217791733269173,8.150146940975917,6.084525711784776,8.68495580781818,13.210910118444472,4.138314709557057,8.400066207090743,23.06278216401641,10.102287931137912
10.466744655273061,12.11560923266755,7.834778982430434,2.6595080645142986,-25.155057083084554,9.677552016965734,30.22496345873707,15.591261143269023,5.051642840862058,19.211437587154084,6.134604325969523,2.678956180963601,5.753466502275722,11.91072263024748,5.940020010038732,6.7345103932608605,18.888529985303318,11.635528930519957
8.056057764247926,7.2703405332511,7.460132069943496,-1.4229879076602179,-31.734020949171065,8.671015657769853,29.508710467247187,13.8451981965014,4.96418891231406,14.957485288694215,0.8005807499950434,0.641287508842272,7.119946978877742,2.702851269505148,5.300623956471803,5.1674811674249845,12.275652351476248,9.849464735687791
7.013784877377915,7.40766212588779,10.60306770939854,2.5024412560748037,-27.66470135723182,13.524393911874483,34.45757526951463,9.55993206214548,5.46272936583372,13.342806158236328,4.550632957863135,4.17078748686845,9.757007703181177,9.611155111592822,5.442849099968722,5.0661879714891125,10.353203190750769,14.314599963302047
6.5586929665526315,8.52355440636752,13.943244459185756,1.34968520038863,-27.40047515343401,14.471967482825772,34.03628160425773,5.665192862196197,6.156635726165408,12.804891240213054,6.349459258515494,5.064190807662415,8.684103387072664,7.92827904034611,6.464369773575229,3.6962145947775125,8.824278189518061,16.827729858659108
5.030628433229747,7.688231370746458,14.746266283604358,-3.514021101522097,-25.17956690261759,12.197393986667551,29.612084155747006,4.407105857122776,4.116177590187412,8.558524075434441,6.78302821452279,4.493375105974848,7.807542142147232,2.439503595824867,6.3143894840845185,4.475581874785724,1.7317888266416723,17.779530080453647
2.1366451331157554,11.15173308487251,12.230890874417776,-12.088651263025497,-23.63876674631682,13.04847866924381,25.188994516661815,2.074673491643365,3.247665690373576,7.635072687476794,4.77712596383485,-2.229246512244531,7.615610221988259,-0.8003419277385451,6.653105312057146,3.205006324844694,-1.3537753394069227,16.87707133789888
-1.634942061875586,8.269309107114282,14.991017863751429,-12.264619357758962,-24.73126057306922,8.626706704098934,32.09535269844145,-6.60562628429358,2.76983856964625,5.932920657602605,4.9216867119964345,-4.263680387954928,4.787941063219587,-1.9865254733211266,8.164136378181944,-1.5803794229866652,-4.729326428152895,16.366524769058767
-4.037979858529733,9.68559492437078,11.112420306884411,-9.315417455457965,-25.039058500577372,5.2798807040793605,29.432442365358277,-2.78585434346099,3.073327001905189,1.9872084939760182,2.8221316943605044,-0.4380492729160026,2.5472357435319286,-7.271439000709904,12.019389939826702,-0.40777645733654366,-6.051052783129034,14.490093308948735
-1.0684765382343873,8.17385820011286,13.192962854498981,-7.147329531003391,-18.702727094108013,4.8635459060722495,30.091123165100328,-1.0170193074935234,1.7166866593204677,5.563714775151068,8.634884533753834,-2.7642709827941148,3.3349324760170447,-3.56890153069145,14.996174380208567,0.4727173439465347,-3.658749457627348,22.9667471354678
2.878993072580684,12.425576908180366,19.963109849256043,-7.518169561193626,-9.43329142301487,7.768380109358009,26.84475817526203,0.06808123848264458,3.485145360286504,14.611629489852064,12.984819917324991,-3.3320844985839537,4.1236350883712145,2.3827447988534622,15.922610055699915,2.8189381570696446,2.7405776282889995,29.101020460316963
10.245895067847115,9.842840387678145,19.508630724502083,-8.279442222199378,-5.043401637124204,8.427937624820181,22.5254556158336,2.2272800785047364,3.7887872600731183,20.048783317606894,10.793752177046153,-3.313398796843149,6.1828870435283125,1.3060547362392736,15.482313816237491,5.1660160859324655,11.193792049725197,22.541232295926907
11.461792618890975,9.410097313867823,19.44684168461464,-3.2786851712078935,-6.802639319519935,13.190015717393829,19.086401969442917,5.36291235703967,2.1393210048507765,15.722737138582998,17.100989180625668,2.0769991221600232,4.629793252386001,3.455129185569703,14.065928725966621,8.685839560334209,17.306311419633737,18.131397621551983
13.558063839810163,7.220973481301797,16.652706243165397,-1.4027283968900215,0.13294101654544477,9.163835500459212,17.015915562009507,5.86163401120048,-2.9281227400403687,17.454041379090956,16.964911631058445,4.538184897331033,1.8081304813522037,8.048742541477374,14.017252093394504,8.300200973887453,24.20319690680513,17.824708707823895
18.683198963359416,6.986397287297758,16.00912131484896,4.672782600336045,8.43897776108609,6.603501156772755,17.7788900927236,7.8250619018388665,-6.530660763676124,24.85205963920619,16.049682452206383,11.980418838157211,3.47969549644988,9.325122576421991,16.508187797193386,11.333425042249784,31.298513146026337,16.835972729111973
21.66135684642785,4.116388145577053,14.68402104240943,10.748588583401167,10.888766926145657,5.020764113082096,19.422196358717514,6.565615746164199,-4.8596455439841595,24.342358662895663,15.429549829894434,16.29809166905976,1.5388850691579723,11.190611461189494,18.413698615255676,10.754147998396899,40.057134936219086,11.55188870274787
20.14876995663316,8.571967736720797,17.26732651122877,12.62542988954802,19.396521440224664,-1.1508280270830067,19.504414494226122,8.431039383302913,-6.508963088191585,25.983676400509772,19.010835462889858,20.1279453189716,1.942809667261212,14.71947502830854,16.804062287911215,12.714800307077157,45.791497104082794,8.710875053898064
28.794116708471876,6.680983673324017,15.55579353722138,18.799552623985516,24.782382179888923,-0.7782554262572816,17.83025073347629,11.565825985816666,-4.837892458807218,30.264290396580954,19.273904506655207,25.13014409862141,3.910194816988913,16.884352153493467,15.097309167032483,17.50834733529402,49.57583884327507,8.996569267365249
32.36280621717231,8.795086748630673,16.19015312625919,20.188809194481557,27.827579305496545,1.5486042678926903,13.813778470006014,17.72780463709485,-1.3113056532437461,35.719321561087014,17.683633270108658,25.445206108637993,3.534717500396125,20.90797521620246,12.51218630504884,23.962887658723815,52.58205483703706,12.40900359310981
31.44080070934641,8.468795620880645,10.28355429459762,19.137007113189142,32.43839042705676,2.411764973969248,5.990149603006113,15.97929775086008,-1.5933579858168452,33.36424302795805,13.556426851404291,24.00284584451316,7.359432047495301,19.759012025169483,7.583836127487719,22.11732255461768,44.75139746244277,9.670723914255657
29.836767076657196,5.897354510673065,2.621228377356794,17.402006943807457,26.602881257853113,1.2253137667290588,4.906416286209602,12.08210087831975,-3.535586039117198,25.05453535418701,9.529052601203963,24.709354992264256,6.985757713750188,11.972619733584601,2.5583947699045124,23.299939971747023,35.36134952461325,5.957620603269935
27.355404143613782,3.424477220316355,-1.8162791007932224,15.960406809572786,24.38373386074959,-0.5458510362965239,2.847631538147116,8.379988268011775,1.4558839849573637,16.649644770003086,6.773410874911848,20.045069442879637,6.319988193442485,5.556754461244749,6.225066575080072,16.96369340071625,24.11893325667714,5.761978805037615
21.45762429463154,4.370454319482414,-1.6617602792031843,8.366816056107494,18.45658493344716,4.910920699332106,2.5482248981420206,4.287001598021068,6.056713783887396,10.688652734832209,5.484823755352707,10.302944116986945,5.264449032384748,6.468557978332809,6.9625878496825715,11.507137268410597,15.907029171086318,7.1306717752296755
11.948125051691415,2.3874595387050768,-1.7981039321867396,10.148835029176833,16.24338965842058,6.1697030169363805,-0.09341752191642527,7.029801425364755,7.141847433476548,3.460543804847841,4.100773155890058,7.983151293211938,8.018405557024733,6.016509250424216,3.2084418239187036,12.10611994730278,8.772474120434257,3.813631171558689
4.881698736402997,2.4559639688893338,-0.1745005373162094,4.4116938164000805,7.685367460750147,12.117378633810386,0.19623188257796897,0.3971903776140788,7.543350721054942,-2.397945813561808,0.6681092082566114,5.761341868665109,7.941113171638226,7.716303001542634,-1.1310550974908384,5.86980727892448,1.7386806120203282,0.010165824330726991
-3.2573213716929956,4.185262568032828,2.6230992037238794,4.143890457336044,-2.920574698809525,16.89451024118839,4.979705087897344,-2.3293916544040307,8.433107426312297,-5.031343216053408,-1.297485302044917,5.590651949223331,9.134177949188901,6.587408831121156,1.3660919004323198,-0.46342970501150127,-4.1201279434949,-1.4476248096433402
-10.125138029660409,0.9345545711344574,6.790005282582969,2.0211125154301453,-9.910321751549315,9.563456789475,5.17483895000642,1.5844590647941006,9.029846113951812,-11.66634663330911,1.5243561640194887,0.732678694861475,7.105324105596814,-4.987464349856584,1.9106925740849627,2.383880722756511,-15.83532209742252,2.4676732066305744
-12.401376973523188,-0.264877449696332,6.271431106983657,2.8286068087458784,-12.307330397242211,9.558133172471058,3.3207400145505517,5.400345295644124,8.06400625049889,-13.22081291636433,-0.7297955112841681,2.3203856696951277,4.979578886264617,-6.304864665828102,1.1863573173757533,6.110816547463595,-21.102041274549293,2.673913044638071
-18.87522403277668,1.0751802783214917,4.485389676434136,1.683503364543947,-19.096147059704116,7.503419719677662,2.9330909007494377,2.965816096825706,6.219181724277681,-14.284683681944195,-4.446602016285022,0.8809532605089503,1.4873705541589386,-7.7165032514864755,-3.0530357960986514,3.588348150824098,-27.342289720498833,2.0031911965115716
-24.07783523062342,-0.025892057182417716,10.8070149516248,1.8085241307596274,-19.43679713420753,5.547808892546634,4.207209795173711,4.730236247399583,1.835180297581788,-15.83456523271014,2.8741286317780164,-0.36293190203752523,-0.5392481915206631,-10.101292064904538,-2.5065728339024727,8.1955708910862,-36.020950740023515,8.365805677621205
-32.11082531856833,-3.5681695860561415,14.884576213636324,3.3990006069103944,-22.5091429567366,6.523396150021563,9.486883960271058,-1.4159675088614847,-1.865303603207531,-22.265085774827227,2.677426398019583,4.05754489597001,-3.6394009812508603,-11.017781488197812,-2.252450298804222,8.994802412790508,-41.669209195040985,3.597436935156349
-30.18102014364198,-8.965780989069835,16.42508882370951,6.25963283508166,-23.52799023195305,6.230918500217914,9.103997475917021,-0.4335166920662967,-3.417415196124521,-23.810502123798777,2.8735681996477975,7.892269646386488,-6.543560174162998,-12.028490811568481,-0.8257961007548609,10.771256138442023,-40.47843254240572,4.495235448625359
-26.88229073294356,-6.648342773508109,18.162956952947813,0.03871539385511635,-18.684722275022033,3.3031862785629382,12.140719446077764,-3.2600916805161777,-3.3094548024942334,-16.759851847849998,4.146157586181058,0.5941879045451186,-4.2712045703824195,-6.688006171921785,-2.1329138145698323,6.591216325813724,-30.39782848701845,5.0044395823977705
-20.26147222437016,-7.162965762927657,18.145012134008226,-1.2986803241745477,-16.86622883346984,2.623104078083548,13.909476597191944,-2.766690866727089,-4.471166526360989,-8.242182473635063,3.467803413049938,-1.3325605904882991,-4.342004246945759,-3.590207203548063,-1.4862258012460652,6.318098226652826,-20.118956995663837,4.636777981930589
-13.638917731352777,-6.994045978239505,17.2501592779376,-2.1471385439669977,-12.603712078486772,3.897715179723807,12.652426908691488,-3.836214579075989,-5.144723203635133,0.47292213443659037,3.182289703785684,-4.040431610180066,-8.025534424982407,4.296263385544744,1.7978783525846955,2.0416081175371454,-10.71607507970835,8.76344281105517
-14.436605428922608,-4.872107172094346,15.576040318940883,-1.4324105047583142,-10.975410354272446,8.494243389569707,8.17425132033906,-8.519488540080479,-7.1856342939715425,6.065064876614021,2.313036807682911,-6.357550177131973,-4.872441996887834,10.818966491342088,-3.4135773382872703,-5.359351340782117,-0.2360505168099465,3.0287618535693
-12.009831514449708,-5.582452626997716,12.243718767812869,2.896329502872161,-13.348568135285277,8.600083911842656,8.67819561386677,-5.78120111196556,-7.3712069894747465,7.752949256180983,1.2506729572179465,-4.084651094659719,-1.7187943236926193,12.755193755021116,-5.792288430978671,-7.095600722064738,7.0241528962724225,-2.801476145264127
-9.190660248394815,-5.121188588297127,10.768855456907824,4.198367872384777,-9.762132315992735,8.609848468846511,7.328212854048546,-5.387139086039415,-4.529561227093888,8.466272312655843,1.1670878586070623,-4.448424451542424,2.5096177434768956,11.276833684106338,-6.119510026050634,-6.878151480845599,11.357484557119728,-6.7741024839423005
-8.615840313796472,-4.757938779539002,6.073229142255479,9.212100961822548,-8.517047496244803,13.308778775211255,1.78051149300412,-8.216234642954799,-5.008463120002486,10.158153147478137,-2.6252936057589693,-0.6128454109490891,5.566639769278873,14.782446137367614,-11.328934582060501,-10.664143195748409,16.474914233581863,-11.916494020069546
-8.527521971813307,-6.738903772902532,5.969439377440662,8.562397581547053,-7.367222666101738,12.540481369006557,-2.6913968671032364,-6.748854017264506,-3.436750135186642,12.144951395505387,-5.243588403229513,-4.1992016427931915,6.768640762666976,11.553095109233714,-13.607935489999814,-8.980792563544169,14.856771101694427,-15.39656399480294
-11.074164957280248,-9.696947140391902,5.18394768219145,10.257203872618245,-8.949454175801232,5.523704941405708,-6.282834573248369,-3.0358216482541254,-0.49803978484095657,4.270225471036495,-6.785458599500847,-2.3166876295338206,4.1624387348260345,5.006792945885239,-13.054162751345416,-8.859474385446301,11.288259180170535,-18.386193768239096
-14.497919253422175,-9.13988409354306,6.548807199740819,13.515268961927145,-7.5996308470209515,6.1258583416053,-2.353082584194791,2.141589008802049,2.0498151336598167,2.940438736820848,-8.325143981362439,-0.23883707439301682,6.732518239403966,6.471827603548162,-10.253554695560807,-4.636057228384081,11.238186317786356,-15.12356590765064
-18.603458527634107,-9.462383461060634,5.376424323239284,20.28975831295241,-6.442838529008733,7.803881906577202,1.480547739087804,0.970747603048387,3.816170053598846,-1.610220111329184,-9.179045302262772,4.573436007511717,10.181910842129616,5.987098377776096,-9.50304337530026,-2.8536271250869962,7.870484821774809,-15.179128926049291
-17.921938312352722,-10.762172712451937,0.29956790106603215,22.377432044330675,-8.701821259802912,11.339045701940474,-1.7156510463576566,-2.3490737532833093,4.996326730045044,-4.98719030634329,-10.323745158055477,4.307497654966589,5.916707238969869,5.798720803628556,-8.16586086448597,-4.977067535803789,0.013235712883375328,-9.958992404894856
-21.828490467410216,-12.746347507985883,-0.8691663038066828,20.26658879677926,-9.591388869985188,11.262523685771928,-4.6173565077077505,-4.88815311235741,4.223062969376315,-10.413214999528027,-10.880329314638885,1.8930658623870595,6.925358419806859,3.9535263463187693,-9.36704545194571,-9.346214118647861,-1.884209054542982,-16.260279089731814
-23.584719553482884,-12.387585881957044,0.8936202525000887,17.277601348827993,-8.42797679688656,5.328194547020374,-3.806555924072109,-7.0371312024033745,6.281594113535269,-10.368686053466302,-13.680877870519044,-0.033114023642613954,5.297558736527966,3.5765477496541873,-13.204245006646573,-9.613330856068234,-6.611072403492555,-12.402962836211339
-20.26088182206857,-14.373526386537044,0.607358213863046,20.148863086058295,-4.62567877767316,2.520576443852221,-4.263802255207365,-4.303761225291403,4.628837569398215,-7.978689072553456,-11.694039354404465,1.165703948893755,7.088059162656447,0.7614592951986783,-12.060145430852371,-6.462038841514767,-4.303948887036029,-9.715334391520827
-13.810120363176875,-14.504952219789377,1.1040969333959243,17.063796502616835,-1.7978719757494845,-1.261950242112503,-4.328922083138075,-3.328778209432002,6.296136559476146,-4.512812607050499,-9.216760314695376,-2.713742784666251,5.55844652680738,-1.7573395410019668,-11.11059607135639,-3.4080334250745654,-6.193504851843315,-7.611440933141255
-14.095855060327306,-9.559222934133686,-4.354573218749451,14.174848050082526,0.6413486290724979,2.0862118402859373,-9.861387856163667,-6.944264739746691,6.205274481836543,-4.756323804415734,-10.54598744529339,-4.737766395238604,7.740048863336046,-0.5618461990173884,-12.797029021947722,-8.459265769117373,-7.201563892896786,-5.895961331585512
-13.012481468588819,-8.911545470194284,-3.561460682293797,12.556261505593023,-0.33544901370050173,1.8227156984119262,-11.290748881149327,-6.849320419568819,6.602365215391282,-7.927998521748448,-12.166048358898609,0.5624555497878863,5.038955664800121,-3.367041553738277,-13.506095945833263,-4.81862078143072,-10.355541817272748,-6.81501870075785
-10.950618410613208,-11.194774223674065,-2.5713716473746473,6.055607733313115,1.6194453695256659,1.3655862139290882,-9.495932386622663,-8.708101059779864,6.608474943980953,-6.50822839087397,-12.319110107401892,-6.442292994038592,6.341991824687161,-1.3837494175806473,-13.042468858907151,-7.134775411343341,-10.088973010865786,-8.317796337614311
-12.597825172168712,-13.576896321072661,-2.9468565503032966,4.926957845660895,-0.330053639499611,-2.8008516757721793,-7.601993279204738,-10.860431303312781,5.832958561811347,-9.090931958913528,-13.739595894959592,-7.197050905807348,3.8365086258482846,-2.2292949295904823,-14.92181334271436,-8.27873025152962,-10.698823256795983,-10.40429084201975
-10.727416663414221,-9.71021904162772,0.292602520607554,0.4787813230804918,0.06610490265825497,-3.7428951812236164,-5.804253846388146,-12.915685733765418,5.252379356392179,-7.082265250460747,-8.321919867921839,-9.514446099349415,2.991310001453777,-2.1927063187347073,-14.358886502789394,-8.836447038846028,-12.868721530408575,-3.992329753359771
-10.319925260173399,-10.33715295386824,-1.9351912935939382,-0.6481871455140489,1.4406673479487164,0.8832444093794614,-4.9816400737823425,-19.36612523891949,2.8159107253324205,-7.806595625782515,-7.394386552219919,-10.855385200466054,2.536815845989886,3.1205914578039486,-13.599802168864072,-14.0814586905013,-12.106436093456548,-2.461021629521039
-11.96128500984463,-8.914687356448383,2.8699255784091005,-6.364216092581469,2.719352364448776,3.0696351133880064,-8.552178641559493,-22.301476987031855,3.0157947342231477,-8.627200596836284,-7.636639541706781,-11.122217476132375,-1.237997378251058,6.581559233790301,-12.839861063428266,-17.568368943063767,-8.607306186951517,-5.126761250658013
-16.139772229503144,-7.786664607430847,3.2819702834951023,-6.610549752800516,3.706797333723298,3.8905145924904954,-11.73064544447799,-22.21003306044648,-1.86294396473245,-12.083217503335762,-4.751745116517145,-8.557109721641392,-3.0596410039015645,4.8698088722651685,-14.325175892104832,-13.828358555167904,-9.988658696378941,-6.911345909893584
-11.03878802306851,-10.175845407142129,2.2306477285715687,-11.934215365405432,11.238995936454508,-0.46276663593352296,-15.200649148176996,-22.80279021618426,-2.835807025616533,-13.975399172195871,-6.649987162500289,-7.457007706719559,-0.19372745358111665,1.2080200264530152,-13.270501518291505,-14.971001118619235,-14.590334531717069,-4.689728540333493
-5.056885784748393,-7.97669125707624,-1.3583045151922377,-15.01087350803957,13.108681492973776,2.1193535023389884,-9.880023666300541,-26.716509312297706,-4.4927218255322465,-11.081075346997318,-4.835149312736849,-8.993808579778165,0.5236725113899672,4.092389555821863,-7.917982207971604,-18.066577842724282,-10.693426652446037,2.3193513053532833
-2.1980207238920455,-5.68151077211388,-0.25824090411326495,-19.64916686833508,13.612744332725647,-1.3516021679258046,-15.300319976249611,-25.454968070938108,-6.24775533178912,-9.65037604099039,-2.920575071632765,-8.968232824030482,-0.321523383775153,-0.3445088944769612,-9.10761017666875,-18.720503427665477,-12.165355166774848,3.1782243815982953
-3.0481273084007974,1.6901896108280194,-2.8677542049704066,-25.06782403444076,14.997261128825933,-1.5981460517444042,-18.961349436850472,-25.365919957858114,-6.929027862875008,-3.5308977094698077,-6.277447364957094,-12.556142999670833,-2.8270013179578726,2.4483000180216274,-12.542427405944204,-18.007025611944833,-9.240366252757449,0.5236464252891784
0.10776769873509995,4.470243836969614,1.4578223053653838,-28.630076175207194,20.582542546078386,-2.5265854018916567,-21.253744199096396,-22.83602819513704,-8.099076228593027,3.371016552503446,-4.944684021388657,-12.921498636647936,-6.113869751012917,7.294927484586331,-12.16763606067703,-15.047236923140948,-6.410735285816456,1.2893128219068861
5.316521009580535,6.662570891576307,-5.250562296920614,-31.019517228199966,24.80204371350485,-3.0626826007681522,-25.693183142528273,-18.841869055349783,-9.757913140643781,7.344339757255462,-6.344280725924284,-15.533133514640472,-8.033686162898322,7.554617991730361,-10.912949924873708,-11.4036729892971,-4.45774260917351,2.9361172255550922
7.792914576348034,7.485861931371854,-1.898862615717583,-34.57992228328268,28.4369716563904,-7.6010333033075135,-25.150650469958297,-11.137312669195632,-12.198524253507784,7.607777780299341,-2.370652601067356,-14.238609316994134,-9.758370800459184,7.2313091396954485,-8.778350127671718,-4.146612997832411,-5.725191459290966,8.003154819641857
7.243986057430332,9.479172734496125,3.895591458933824,-32.182265178834385,28.94816899737185,-10.86811666412812,-22.165245615334,-2.5544309607144555,-11.319296617865257,7.481662274285031,5.901957528968629,-13.627838113352286,-5.330828444024883,7.49686354574721,-7.326341215123268,-1.479318129599923,-2.4981368488432225,11.50987381950096
9.82218357667607,9.224438407055443,7.054571645228123,-29.39302549201744,30.82783439125143,-9.543566363752667,-13.611918005995355,-3.347283437732031,-9.85465877878563,14.485608442583752,6.07100884532706,-13.993790372172977,-4.61451730304181,16.261527421759702,-6.6545612335673425,-0.6673823015745501,5.321063507464336,11.503111388896015
15.918148163954978,8.28414030006985,4.062373918138325,-25.040298236854877,32.122754371842035,-11.049367172324839,-12.18616986227319,-2.8711725811951094,-8.878857368203796,14.75218715803713,8.585871573076226,-11.234837217591497,-8.39072524527624,16.63048055515477,-3.735600176921791,1.5118896228976118,3.0837342012818834,14.818900291322407
22.01621077762707,5.7793177821607955,-1.2723747719529594,-20.97956787062221,31.8562915948893,-13.627675914467822,-8.317537516763707,2.5849001842197303,-5.462171328476331,12.382994276196337,6.122207074055984,-7.499444104553725,-6.893703660824812,13.974867103905847,-4.331244314924694,9.746059219527512,-3.0577004205698453,19.01578694964774
19.03421068456547,6.88579165673138,-2.015999273985745,-17.11316354551628,27.098652632924402,-12.49325905348132,-0.15051761385103246,6.575529033765129,-5.171102639165518,9.526471686871938,9.031727509137236,-6.596257035039479,-9.01033173114413,12.396280273998837,3.4727713518791994,14.171685104430612,-2.9468475215235035,18.917900023508032
17.030903681013424,6.0370328848993555,-2.1724907643808926,-5.042506003818579,23.025635215317088,-10.966475025105062,6.455432910921342,11.444505297650686,-1.5602508786664786,5.1083567349824754,10.771355822467498,1.5334781189389481,-8.783511530454822,11.015768248236993,10.301324743225937,17.425516937584337,-0.9783163629963136,21.654242382086142
16.885217421970673,2.5494010360568637,-3.4020540361987415,3.611147773249863,21.785645864685772,-15.102098490462417,12.57455787092755,15.726968951797453,1.8546952524033578,4.988087240183934,10.85279466922685,1.9481350332734237,-7.38515952769715,7.00122418767814,17.42398769082968,17.94502184594718,0.40643981760827663,24.490384087816853
13.128325858927687,-2.4052456267700073,-8.243812872069347,5.722764674465143,16.73789324687675,-14.157772271600958,7.464515740928596,14.833012768947981,-0.10213415003085147,-0.5024786878791208,5.85801431989984,2.9486305525722614,-6.084849269025244,-0.13567314245565143,14.58671889400431,16.51145300243958,-8.460703727967749,21.17621550493255
4.686000632642755,-1.5026095501590193,-6.443726373729861,7.542455106831611,12.862855883385478,-13.797638964833734,-0.5737744389024355,18.723733256273704,-1.0829952682182946,-6.773451858670347,6.236383963256916,5.902182979225579,-7.128731013308248,-6.586304508136124,12.53189135505998,18.398319902119216,-15.27487891960946,24.016596575025726
2.398257044605847,0.7650219553041477,-3.275333552225531,4.773293994266547,9.965150875361958,-10.701328473708053,-3.5323655888102277,21.344357967408765,-0.2089773403122368,-10.602150373787397,8.86284672839174,6.609520427666967,-8.17304052011583,-7.174842347651417,11.357184546288892,21.066513101543794,-20.4267225613235,22.952763707940818
5.97212736752662,-5.172839184212872,-2.9379374554330964,0.442687210922625,11.85336150828081,-12.876767929938621,-7.1730507057957364,17.90966548605853,-1.9723449138279072,-15.21130206524905,9.049821724596956,6.437863193291003,-8.338878915794169,-13.424932634164197,10.281358398849305,21.19566150952826,-26.16236715090373,23.844163930272323
5.9348156330326844,-6.4253990556932035,-8.849578340804692,-0.37114639728083043,11.49606078550753,-16.124666294876864,-7.784820687476042,13.69318202143652,-8.521576368396378,-16.10867212770663,11.87550190193393,3.043438433430401,-8.993474593644514,-18.89119706427046,11.257589665729016,17.906837816592578,-27.403613275106544,23.175100208513825
11.759126777780214,-10.805302870206203,-11.14684289102621,0.3786551443167596,14.264353618668428,-15.17149671309687,-14.840460021859572,13.382487720088934,-7.844777353054556,-20.618611100806095,10.60149348683355,8.047531127898644,-10.91810873068686,-17.030599443203393,9.50067110866908,16.082921668838864,-25.615328681937143,18.99239836880174
11.042531252786526,-13.234372325650778,-13.345427226613731,2.1061625813921667,14.298703753941293,-15.388425309763981,-15.937418056472035,9.65326106036949,-8.828809490982142,-22.68635787100278,7.473914640032822,10.610147003872873,-12.843249168251818,-18.878496592561802,9.307565383446176,15.040301825260348,-25.289769613411742,14.616401251380971
11.79296649257586,-10.392266599648144,-10.074172110666396,-2.9035679709353186,17.458502747305733,-15.212917949519529,-12.735857350535941,5.825874558634046,-8.055658728479635,-22.507245400830755,8.74285072005788,10.24301322058472,-13.792336160091612,-17.305905405551282,12.53379168856742,13.900051882779351,-25.352699656701276,14.832316879060297
11.861964242824422,-10.677571817868238,-14.028599185828055,-1.759696838087067,16.614661755019753,-13.180097513666576,-10.313959983600643,-0.7364210577173872,-6.697224376834214,-23.401653010105072,6.498014630094614,8.996959157891562,-15.034937162333769,-12.996461673781045,10.487833321070603,9.927748714900428,-23.655645779539363,13.292370017321913
12.909707393715076,-9.793365995870962,-15.540606517969392,-6.864738660757393,16.161704357354914,-13.684550558850672,-8.769361890293847,-7.396856735678886,-7.097298207064572,-20.29139300987385,2.8878663870426613,5.211821049018533,-15.887463997406153,-12.00497653744376,11.372962645153295,2.8304130620507486,-20.6868924500662,9.703564480376684
12.494753024736404,-9.009216424038437,-16.661019868543207,-8.159927476824954,17.662078810567078,-12.624639510329509,-10.445825620052107,-11.421005324419255,-7.791019704152188,-19.621889665942867,3.4788868083330535,2.598611817096864,-14.103803807487816,-12.183010563183121,10.696945822083425,-1.2395230958220487,-19.08319293605052,7.972186113280786
8.273315229327485,-12.133789704534871,-13.87417265687299,-9.453896063595785,10.4710150495468,-13.80900300203726,-15.148011062222087,-9.390835135023565,-8.97370951776264,-19.635315670821573,2.704574248808563,-1.2840922558958585,-16.71532820601278,-16.65564184356683,5.530072864859827,-0.035936965190435544,-19.625801964152632,5.36379368398952
7.374408169486696,-12.917003256887764,-11.47701632925293,-12.406806566885065,12.264486904949846,-16.554022878647785,-20.825079621298155,-8.72832327865133,-6.543747318349754,-18.866815520395978,3.0063616864887233,-7.022216831277794,-15.128169541652102,-17.707938837417853,2.2201191058418783,-3.226949600591773,-20.166240588034462,8.616746055981782
5.501089689727771,-18.097251976572135,-16.3056023647852,-14.088907011142313,6.147627516522759,-16.46508611937294,-23.08240551319389,-9.921746964886431,-7.141863784793326,-19.464868667639028,-3.916669364805931,-12.467269845529739,-12.467388139926937,-21.68768407152949,-0.3071283684355639,-8.859410501209249,-25.09909699590673,4.0589337573136355
5.485431949154232,-21.81508030707966,-20.644977727576986,-14.597835046064274,6.183073031809532,-16.960198180195093,-29.24429034562906,-7.306945428526632,-4.420309758588375,-25.23813471311804,-5.857311991236678,-16.056704668620156,-7.072814225771973,-26.837067098948218,-5.372010490059152,-8.046469107930953,-27.68597556394048,-1.5712855882569965
3.811753289624345,-20.06652777208492,-24.39749185798998,-11.492126777045698,1.9213662750550409,-16.965107745612436,-24.076096334090558,-4.790216099629894,-0.234585863456938,-27.788054302938512,-6.91720189143183,-17.204551059665953,-4.120319009121393,-25.34349701579556,-5.845489991294641,-8.6007478882336,-26.559654963068738,-3.293394218483451
2.530862541352863,-16.757908859434636,-25.31702264217213,-11.119514642494245,-2.3406316475285625,-12.475830583661228,-21.152217624626015,-7.449748961117999,3.3644921753044983,-22.231745293467092,-11.588605714517078,-20.207724770065923,-2.535677517837728,-21.406284365603,-5.8291697151944115,-13.647297218464315,-22.89201372355212,-5.794991128882035
-3.8260781459642477,-18.529952793328025,-20.27852702164779,-9.378352630538313,-6.407685124061922,-8.570551599339417,-22.328118151376824,-6.789307798994669,1.1034035750146405,-24.194449542998058,-10.105760021107663,-18.81610460238524,-2.709530081979045,-15.513744960758267,-11.280149562824569,-14.592238068374897,-25.6675482366462,-7.22060715470276
-6.079246281187695,-18.448960934873426,-18.754809125140802,-3.534202862530103,-3.1508593304543417,-8.8625889192222,-23.795111545657093,-1.7346443448471405,1.087738307494651,-22.347871217141773,-9.890663591518644,-15.66642270256474,-2.786388222966197,-11.37689942123252,-12.432633270073957,-10.947283226070331,-26.58533357869176,-3.6639609629881384
-6.084144677654571,-17.29619414017418,-15.960641727987172,-2.278582856306281,-2.92195519458134,-9.054983064687267,-22.721087490933037,-0.7819685728728079,1.5596549344889041,-22.453817609623712,-6.353413109767298,-14.371987617219123,-1.98499783352253,-16.222446388334777,-6.9428128240322025,-10.329737277345455,-27.207875315025458,-2.644727138444118
-5.891592287656874,-19.66156316656755,-12.1889988018108,-1.119215041882283,-0.7405086398133527,-10.124291895355405,-21.840425539849385,-1.7827965061875424,1.2496010511723643,-19.531743226005755,-8.869162028143286,-11.71006509494043,0.8665269085861489,-15.401750085683542,-8.775722821111817,-11.177076583155266,-25.58199915183869,-3.7723035837732795
-8.431328374313091,-16.658208683809104,-11.93213585948756,-1.4232861203494993,0.07303637044661038,-7.773554700845574,-23.496873001237823,-5.030087411213541,0.6458638970510693,-17.292640099541966,-7.769804389898209,-14.028378445570347,0.3970039743919882,-11.258620894829654,-12.853138544414909,-12.512723278154814,-24.930389865114098,-6.363115199317566
-6.769661088488503,-15.708112036153162,-10.795452786212401,0.2272465787871516,5.768694346722182,-6.1043758489567885,-30.131833681295856,-4.273731721201579,-0.05624219758497695,-17.592001889072453,-7.840579688324994,-7.5571555570853075,1.879945731579447,-8.871285298474145,-14.194493040706412,-13.555414297286278,-23.78815960890864,-5.436646487055675
-6.375432214093843,-15.151082829878114,-10.732101313808982,0.31672624810853023,5.994663984654088,-6.38628470035368,-31.588861711170686,-3.322366876711134,-2.7122151445782894,-18.183695893055155,-4.589242006210762,-6.45673706582967,-1.81366774492552,-8.923370856782018,-13.678683800609223,-10.887126901418316,-24.88970233592259,-3.4343703178988
-5.002522694638354,-17.916842580094798,-14.378836107977621,2.165537928834328,10.516638525965218,-8.912232703599004,-30.5046740342652,-4.031475306163422,-1.0719601337981475,-19.36068942029333,-7.683917644029124,-7.016096255758013,-2.578248230227951,-7.8992216967048865,-11.696319664141724,-10.757953927139853,-21.30129477118014,-7.290015679226599
-2.553284383886132,-18.927176263800046,-12.653481788503663,-0.08576090500300193,12.791468756361224,-7.041471280665638,-27.269858482183054,-4.057256421135906,0.5675819899035934,-23.56441887464002,-8.04244668956979,-3.180419766889525,-3.1482159831043557,-5.408229033632202,-11.079453042257587,-5.941219368779577,-19.858954124053906,-9.972254741488452
-0.19962038252314507,-20.135224335850573,-8.778737023858563,-1.065972690484874,15.35817551288535,-8.879570173319614,-26.181311467276473,-3.106722004592988,-0.5280055067392331,-20.540813303262496,-6.934389577229552,-2.17634604548953,-5.867359646833109,-7.798167569656065,-6.163913041471125,-2.979987874492127,-18.023553759133385,-7.867780557026682
0.20296140378877858,-13.142405022643832,-5.977299296789687,-2.4352572145910507,19.193256082215377,-7.102175777425353,-22.94204731508633,-5.965086175376952,0.719480112639272,-12.53599140618404,-4.359756010916731,-5.17573282577875,-1.9464848512366189,-7.158781378522993,-1.9302225537863915,-5.780564402274322,-12.767677637373188,-4.199327920537257
3.830309735916847,-9.472313807470448,-2.1006892222069773,-9.857741702739162,17.46058890800498,-5.71323197991423,-25.169323769791085,-8.921339529971805,2.4545422821533855,-4.72580306075376,-3.834234231805609,-11.494939986099014,-2.0302868941854637,-5.736218956707704,-6.581610030920604,-7.995190490003823,-4.677245494678829,-7.853780444664377
1.5025849512081242,-10.492139513721522,-5.84043543770604,-6.633931014518793,14.457035257382064,-12.134703248153663,-21.241822971884535,-3.967531990555379,-0.7916517124831874,-3.5556478011855788,-4.67422954969439,-12.442391951381143,-2.1147994519492483,-11.343119454772088,-4.688130972420405,-4.740973074213614,-4.592239267639734,-9.358366444720607
3.2785215717892298,-9.658792377170315,-4.989309087323854,-4.482732549994311,14.186483707899125,-14.549978960055258,-13.893914153261086,-2.0413149813377887,-0.32756203941691764,-2.482444822966688,-4.047676889399394,-8.994628690923143,-2.5906539257488594,-12.944177662133656,0.5275305667648,-1.2914233657795267,-1.0866757261941977,-8.713114838683559
1.0525138323242724,-6.190987717055204,-3.6489228444144928,-4.6736757098055435,7.664344016271578,-13.642638993453398,-17.285921525326533,1.642556296209757,1.307711232664131,-2.4827584784076038,-3.810082604943827,-8.475942588271392,-1.8953263527434228,-15.324641777678528,-1.7746134164230678,-2.6270786595941944,0.2729818899779701,-13.63301578677098
3.1254556906129585,-9.56150203630525,-6.018546079580487,-4.960611481746853,9.539199760484145,-10.291578515217811,-19.796525382805264,-2.9746498255724916,1.1844372794634568,-7.7558577779395055,-6.9888458399661095,-3.854937568586034,1.2407345502874474,-15.55479805988892,-1.633452521873358,-7.576037931775589,0.07270818286565017,-17.575029124213454
2.954263985107577,-4.926333068189988,-8.875458902006896,-5.050545926478498,7.213125820228361,-10.160921817090712,-22.988200519858356,1.0018712729131378,2.525323099989323,-5.60622198971374,-9.091719661748025,-3.7254553601047666,0.37211911549789445,-12.462771646658867,-7.2522162913353965,-5.591256421448583,-4.32422755915109,-14.58206082873524
1.5155009291721029,-4.395013406795794,-10.266491065002977,-8.84976823976249,7.717403738605541,-21.8445253051159,-17.192781300042796,1.1696021523234057,2.400638248854002,-7.264476086771044,-12.169525648759317,-4.962408295723056,-0.9854923320284721,-15.814354157762711,-8.376821686445865,-4.973632538128471,-9.89040711087815,-13.443335309905402
3.7896954690795175,-1.8150768818650072,-9.80099522102147,-8.838612370451143,5.485467573287219,-17.50990827851737,-15.88698629404327,3.7786536962497355,2.568223981808023,-4.527354195688206,-11.534701240848953,-3.1711575495401023,-1.2695737924346187,-14.964869142864384,-6.765088042925057,-1.1332423249337813,-5.981108610207178,-11.326805544035157
4.600970967439626,-2.7529848418131806,-9.627424359416583,-3.6498502870445804,2.665713944084917,-13.270573121891163,-11.355804369718204,4.727416263770937,2.735109176724154,-4.0355664569346565,-9.531041109863775,-0.5977901307724967,-0.08949169123027634,-10.500279922249543,-8.569433371830073,1.9259577014238385,-5.096494805469147,-11.845834975423045
-0.34763015693809596,-6.036813328813391,-11.503599640678889,-2.6586058072983665,0.23464778045705081,-19.282900155668635,-14.732168266033105,4.699509385151686,0.9481412852310731,-6.765673668619462,-11.529729827274904,-3.199386723078473,2.3594415402020115,-21.463862395989587,-8.516320490679139,-1.4601699097572078,-6.943564789278476,-15.195765740835013
1.3464074782634474,-7.2719317858959265,-12.402112130757299,-3.521074410799362,1.9031920283047912,-20.898203854442304,-18.49638250019439,6.722338233236885,0.23471265374860728,-6.1745902979496385,-13.624466622394774,-2.284366582607367,-3.0049404686269994,-20.31615015354081,-7.289334803471702,-0.15863066758478883,-7.225350717405719,-18.25157639095076
3.2376548137088768,-5.774702669774172,-14.764385558504706,-3.6004788808466572,4.155598257761607,-23.19466241919232,-23.820290730220773,7.866185687464229,1.864376445935723,-6.94987066316016,-15.522287098865347,-0.2941309793419542,-4.8543360071346715,-20.338611943536158,-8.599452133570328,-1.2007691200737547,-9.652819953641792,-17.39995633862577
2.689334066448341,-6.5256363177079955,-16.148955906333708,-3.4827479959313914,6.796482700640151,-23.047204170537757,-21.816989775458058,6.763858301545284,1.7355102499039141,-8.407893186452167,-17.51617331114329,0.7205500941506617,-3.677029551106481,-18.6991892222342,-8.930976047937108,0.003341877341373589,-8.464139694216582,-15.277689915975401
0.09205681503271013,-5.8137032124965415,-15.286251347008022,1.1290758545734576,-1.0142304864096054,-20.94409418298337,-12.291115854430883,9.274835209891753,1.9965871473596581,-4.005571771251644,-16.578744182703325,-1.2910930833202512,-3.281668392658697,-16.08150197506705,-4.963526148277214,-0.6479087980535563,-3.8546000206681192,-16.181742578919206
-2.9916730564703258,-8.619411793982914,-16.473190601183784,3.5942827200668663,-6.4834423294462376,-14.443865777817642,-8.914704947710241,5.633356915046124,-0.7704108502833062,-6.5360528374665225,-14.858478925192458,-2.3250501186460673,-0.5431999483968619,-11.606646287291921,-5.095651449756325,-6.96315845460569,-2.26958723289915,-16.010513667594992
-3.2415129106803273,-5.1769508939206865,-18.342542876071168,5.182438887313195,-11.173739847042587,-12.5310084103963,-11.004106037283309,12.441253528965666,-3.147459811057252,-5.354625221537477,-10.695204976230722,-2.3812777845527506,-1.9070298663604177,-11.622391018272014,-4.835079909945907,-3.9030999712994032,0.3925473405786235,-17.01015516561984
0.02612034380553352,-5.349714334484602,-15.62076724605475,13.608520730303187,-10.983559217838732,-13.057029789138834,-1.8597996668905203,19.73744960111344,-4.548610162830519,1.6871987159787825,-6.2374017642148605,1.7629727046157653,-2.0996346998263444,-9.390367917786769,1.580010449362729,3.747053095376091,2.2763291440298907,-9.707889776205342
-2.0756492907943502,-5.036038391569575,-12.214149893013783,13.735592621352037,-11.479450879539574,-10.553075181267385,10.022035574343693,11.701405013355306,-2.630072913596409,1.307983457290149,-5.8796769030425935,1.6115214053020477,0.24619964596216892,-5.398881642983174,2.8213363497424675,2.0222601740524446,4.651330111785189,-8.947717038596775
1.0978496661840937,-7.3609314773278545,-9.29455987464388,14.841153112640423,-13.345076147359446,-5.507412823637377,20.735133647874726,4.251344921497099,-0.12626146850343511,0.6367608743727935,-4.543837414743473,3.3168494357048814,-2.779797818703031,1.91457548437862,8.947658823974653,-1.9484468913919057,6.931623805573153,-8.28424869150399
-0.805125977836108,-4.0234458473027495,-6.080711114064746,18.585396127348552,-14.627335138721445,-2.5099369603028254,23.63881040903977,2.1725118252315587,0.1307531092980474,3.9704879917533713,-3.8900746335661003,7.464946720636766,-3.2673439774895825,2.784213006706823,9.900243610270248,-0.743062504355688,10.875068125438947,-6.643271741856006
0.4186506733268609,-0.6876901114027341,-6.08825783989308,17.546344817208347,-22.55295323422407,-3.1231529146242245,26.74104120746253,5.562576410574701,-2.151998926014455,4.180165770291765,-0.793350911936777,9.954231606875181,-5.41571531327804,0.3350618118476607,8.999465973982486,2.7086989965229264,5.641670954479004,-4.513096612320751
7.112941575612007,1.181510355949916,-4.336630701333636,15.044372773704765,-21.49674221931006,-0.022712784601962355,33.26457045883701,4.948750537774382,-2.1892847680370475,8.883113380843199,-0.8201678029601247,13.128533194062577,-2.6818367417242803,-2.1125321583685572,13.472009869732274,8.016225022947339,6.173081920845611,-1.5031136524886763
7.558793578916021,3.8303246383772525,-6.0993229497383314,15.278772240683068,-17.61118743855075,2.0061703227363132,32.76005715674909,2.674832327640614,1.874396241546815,8.313571615784138,-3.189274123082419,13.569873773964277,-1.413454751622952,5.207187387494113,10.231748344536884,5.804391388055964,11.297421767267,-2.593888523780673
4.881229514598251,4.3290618478946215,-1.317562598436087,9.167381764464523,-20.27147708422547,5.40495473386358,26.790060399619442,6.455795309250788,4.863187517997764,8.916965415151559,-2.1388743585643857,5.418831953910436,0.5379076579838289,9.110407235632074,6.407705655238061,2.323312809544391,13.10442529516082,0.22249292965723821
0.25211689898376477,7.3653350063339715,-6.007194318943281,6.964271373828143,-25.961974992749468,8.318156767412777,26.194622543755237,3.3031718007076627,2.8707831361346923,9.912046153237348,-2.3565516523566785,-1.8517486768394262,-0.05044815002837755,13.894049011877126,4.050702534625575,-6.040327277456856,14.523834482266327,-3.3080521811181867
-2.812891492007974,5.517197461213916,-3.957008656390226,4.860795428992686,-31.8506464478114,6.058216731835586,33.415218121753334,-0.43527363514167616,2.5379131346264616,10.810537551020012,-4.428264568808897,-5.312093375056549,-1.9089647252951827,9.499345824865465,7.164713445566099,-7.567579774608054,12.332951593373856,-5.1776089959965
-0.9934588571343617,0.05424146024013332,-1.124103366093479,3.1499322661601097,-39.988340935106194,12.883174872998957,35.756369662887806,-3.2946637455068535,2.5950306214324486,8.878034356285795,-0.9320375340578524,-9.454415940516071,-0.6430369205138362,11.942146613755547,4.616762022473862,-10.559331860548186,11.121695917727312,-4.80025058087044
1.1204741688256208,1.1329135576024,0.6360486037260156,1.2457394307781895,-37.679586309014965,17.074110808461793,35.07360059180432,-2.34525547846262,2.846823858931161,11.634193007244566,1.0031011453725487,-11.348942250644853,2.5754492074758266,15.558281152858875,5.196049748271328,-11.206910495922696,17.823770221631744,-4.519781900438208
7.435189867968356,5.823523009653313,2.885994850239518,-0.16817605794472223,-35.17847642771838,15.994272137498129,40.64442010184269,-1.1027169339700462,5.344109138576564,16.24694839128015,3.2326346090175573,-8.847160468987337,3.742533092762482,13.804658636292086,8.902580321913403,-6.092273173419677,24.919529347868323,-2.4807248081313773
9.454437059171212,4.457994811500406,2.5983687435862226,3.3027857786017307,-36.87963776149306,17.94457140655301,41.72649808703478,1.311881791466823,4.9110299810740985,19.29828778927462,3.998708917325917,-8.394440294845342,3.5418256223182283,10.978196432451956,12.904281776486274,-3.3209903077979157,24.303379221952188,-2.003461120459326
6.396925576883535,5.8255665810258,2.898240761204743,4.236637178965241,-40.43930968878359,17.74915098057364,41.93318959008388,2.3594493932743608,5.25858425371903,18.542090131343418,4.473201593914995,-8.91650588092914,1.680360179581701,12.05941505027754,9.388536167286343,-1.525831122099233,27.79190219179312,-5.822425970691256
-3.299897109627455,7.191862265300188,4.27392179479369,6.051398336869496,-48.78724649875323,22.927657309883298,41.362168284616985,3.114230648250659,6.386775687865158,14.857280736193317,5.925647115050606,-12.952418251804932,3.8222921665507545,13.239637289357287,9.293010398575461,-7.73813011058671,26.498237045223977,-7.394568959137049
-3.913163957968295,4.064666084597857,3.209754708407093,9.333013765424525,-46.39588651147329,22.151790778883377,35.81416449063161,7.091913532525642,2.9244322930325644,12.540804471837719,1.8129599127194762,-4.583926077161116,6.647264735442812,8.952345476240325,6.5629233079268126,-3.5005512291425607,19.836427751910442,-9.35666706288532
-4.91570529959035,6.893396027495811,3.1237811547338428,8.514989117045973,-42.152099981918184,23.136508797716267,31.343968400660902,5.796283681159286,3.0748079414422103,10.811402307499046,3.658735466679767,-3.9284847159690472,5.663027973442217,8.377339496830308,9.694495708390079,-5.61020228114333,18.93944429442593,-4.579723073512582
-4.745027234838275,12.26007044255838,1.6722352785117263,9.652099874751034,-41.03644445238912,20.998917919633126,32.443843477005835,6.942311289283071,5.958986654455634,12.989438833969484,1.990154205073737,-2.0992013325500714,2.139138427094604,7.315307587772132,12.33997058599835,-2.4457883674302012,18.63141117990142,-0.8763738782909787
-0.37377015374585687,13.71931712783012,4.421627258148913,6.884875966421706,-39.24027774803146,26.286045188029885,26.418287991482877,7.404957095810227,2.4948022634191203,18.39130978234168,6.865943618993359,-3.1000054661341463,2.6186703771878372,12.50460358460173,7.077354440584925,-1.3316158751800238,20.377176308946876,0.8744433034444441
3.119832742345737,11.759462760875415,4.73124875996897,7.537640970078964,-32.4666659005096,26.009399753175362,24.00965489240769,7.0865714866901675,1.3737972870641622,18.22781689128689,7.5437315428207175,0.0028395120616773184,5.246132195880239,12.421582575819837,6.797462359453011,0.173783100514445,19.39148921799994,3.4071277271241662
2.708360426605185,12.825955435553002,9.730131738707861,7.118130629762986,-29.309493567761663,27.20032491140014,28.44064815643891,5.596531335195474,-1.115018770135985,17.870132614951174,13.984585671865563,1.642878713911906,6.603508133838764,12.63270279084671,9.840104773105931,2.8516951373863817,20.947843627447092,7.209950685789954
0.4425940022257546,13.403152960177785,12.875223383005064,7.091201553960637,-27.62029094929357,28.686911147636568,26.625126158079652,-0.287861235198525,-1.2606481679229555,14.290862110652553,19.05946808864194,1.7224898679606406,9.913508470186613,11.966036966197722,7.416075693014876,-1.8917360082690942,15.182780435008999,9.646135820266704
-2.1149744740587444,12.221540318428675,11.72509474658284,7.7498161802559675,-26.813109079946965,27.539406932962926,21.981102344177074,-1.5820868616386168,-0.7232688863191579,10.224415522523222,16.127628449959705,3.9527016850072725,8.242438188029226,11.007495700219048,5.091855531169023,-3.2164760839557807,17.42853434655904,7.590618075170276
0.40679858586833095,10.74601831637001,11.943908021791419,8.996304692827914,-21.614424503934625,25.027340827375628,23.102447371378965,-2.3877636292006175,0.5947804066214475,9.967725122599425,16.419681696591592,5.110842391006953,5.984899785890616,10.928934536733928,10.77770905372704,-3.5639433108239635,19.188848283995476,6.6098712455735225
0.1952615292102995,8.781305225267849,14.410594771517474,6.2407399346354735,-17.981350966464014,25.838259518970265,19.442111810648257,-5.146328300974929,1.130979451938414,8.442578385416176,16.126949594844334,3.9273940283934063,5.38702512113486,12.12094557100318,9.629646157751118,-4.984924787800061,20.46368533271581,6.508562411717136
1.9379531306172293,8.378246338793558,17.562641625398392,9.737169954615354,-15.034957542525795,29.58150439806468,18.910356104991376,-5.463176081990506,-1.360796196944727,11.313112429340608,22.280761845361095,5.382932971628321,6.448817654074659,17.024931884190075,11.804056793271176,-7.284079453085344,26.62418102264473,7.481989544689528
2.998081355836459,10.806423982706445,12.70851868889507,8.938542858434865,-15.900277851585438,31.96010441091116,17.014904694638265,-8.123529993905237,-0.43513211898583015,14.282373082135694,18.66990475039977,2.9344211722835167,4.67802441050648,19.976702541995113,10.562540439833178,-10.266066132363903,30.150645892024,4.744905777287754
-1.6049318792196146,11.573612723896801,14.594552145583577,7.946466482112477,-13.545937800850636,30.14195174536431,7.310324225355725,-4.142871935260587,-1.1702272323571248,15.299532375589672,14.669491262914631,3.710903066185972,6.0317702100091495,19.316032347952973,6.979314359933139,-12.563650683372984,35.535289197471755,-0.33549824020314656
2.6798830948899117,11.265788484037879,10.8182148072678,5.979660369299553,-6.214078594209614,26.17782272006974,8.058586623697627,-4.361205283341861,1.9027554787816858,16.317727847834114,11.256067401923964,1.2669960269149225,5.334197083559197,22.95315301097038,8.47634749748928,-13.10257212588812,41.31319470881944,-1.7044604609066045
-0.16337697755783864,12.617396295910728,9.778076467306343,5.284232729397131,-6.600184375426327,24.55993427180167,7.736050120040678,-4.579241659965956,2.338408734104408,13.821261732622084,9.210862411682221,2.145795636606884,4.343146188736391,17.508907245114035,7.338657649966001,-8.074152727450086,37.42556171245483,-3.6589394407530627
0.11931649612513162,11.819811393959304,7.079541240830915,-0.9758793311594403,-5.524402969211071,21.674908017586752,7.319260751649413,-4.406344774801756,2.0898909077848975,12.009395864019837,4.725190446192451,-0.7816874182823026,4.914115990702481,14.799833063692985,8.546767412527633,-9.197295441781996,33.93108060682752,-6.296611075592905
2.551351756648438,11.607476358352285,2.2343210789374783,-1.0817693398217214,-2.7913918397817774,16.936752633504632,5.148002665996213,-3.5495362976472444,2.4267561975951626,9.02661030598995,4.830373504471861,-0.9723601539817147,3.336113325972489,13.16569867652958,6.143531070780709,-6.901515911291626,32.39221504452291,-8.054969862964278
-1.16821368861272,11.78510028956665,2.3714298463913868,0.3766253230723251,-2.502746640331761,12.005601941793929,7.374676342117196,-3.5713351794425012,-0.7526168993618727,11.9042375857826,2.5926754305291637,-0.3793543465736018,2.050582211939507,14.364291530154286,4.035233258388837,-7.143910536424799,32.027639571787574,-7.76214146400898
-3.129137678918039,12.84099516418315,2.7056352477134307,4.571172706574079,-4.46312015804223,7.955640459562817,5.795991607111542,0.9970967009616762,-1.3934449017744268,13.317920535701699,5.238731069996688,-0.17454126441275802,1.8387846295357566,13.122040112579786,3.393740488765398,-8.068956621364466,34.204495693332454,-10.691662612343826
-3.429112941313022,6.767248235077908,1.6744085034956664,3.103281098346332,-9.160767139277358,6.73996951727173,1.095509818622702,-0.19595665583370803,-3.109060589260454,11.607449018878667,3.198042643804827,-3.580606177857581,2.896035659269354,6.704472489664165,-0.07791555789588678,-11.043837050329856,29.15693923916686,-12.937242713720881
-7.92763905435463,8.993803032585806,2.8910791086095253,3.7855424326231812,-11.224475779298954,3.963934507633782,1.3787777934572567,-0.6074224238907329,-0.9189155933666264,15.561989195927623,-1.5762756129757634,-5.324012470162727,2.976206413685806,5.75622546612834,-3.450031804699635,-11.771585977286955,28.017879162980435,-13.229350426649575
-7.347266045899634,9.950220233709684,7.234557836935582,2.4186454019332118,-14.26754430364843,8.123699714179981,4.790250094575443,-0.23729658611809734,1.4659996006387694,19.615017532254058,-0.19741123834978502,-8.627448467905468,0.4191139772991199,8.714716677224468,-0.37488563107643547,-10.349836104530215,32.25210491845524,-13.130529168788929
-9.207675407012722,11.687330194380355,6.696899069221417,-1.5833861081421396,-13.114072344978638,5.742435104459291,1.954732566985772,-2.1129652902210347,0.627667749019513,21.129740808233127,-3.896047562091458,-10.268193246755382,2.549087054675417,5.325823243745617,-1.1065715887766707,-14.298208673469066,31.117185262145558,-14.398638161927899
-7.844753859217103,11.666048068649328,8.407104824729913,6.916366771418765,-14.307086456703008,8.539004841262004,4.1028115307529625,3.629006792897199,0.9606908425802916,18.738914545924054,1.2928277185410537,-1.8476673015053926,4.287920876650109,9.456882470335547,-1.4458400254454462,-10.335226613399245,29.886555206709843,-7.756212347553559
-5.9929539167039545,9.007469162010931,13.146421889426842,8.97227043595973,-10.717527764137142,11.728112268916433,6.058570302033596,3.4141971363752788,-1.1482637934786986,17.911334210009453,6.482314390182314,1.8878227639398553,6.026243642851421,11.049083710402387,-0.025517077210513328,-6.566458332921403,28.267155509983866,-1.6018380219910693
-2.089787661515116,6.641339201213671,12.125636351769796,8.588259062609684,-9.96265443502617,10.719773504249623,9.87276234112113,2.906757797065132,-3.3554066572530474,15.619570023207906,7.082451481581606,5.91883210650126,3.8577425055504984,12.836778673266455,0.7129179416809004,-3.870799913152495,20.497090481514327,5.33401436577587
-6.19403838096757,7.8880334184122844,15.989422386372647,8.694030551614036,-6.18295487229031,10.592118259187494,10.564781227646845,-1.604302445800359,-7.613888782290818,15.965205409815386,10.026890033889046,7.999241313977828,3.934851368652885,12.37845725553742,1.3553743601767678,-4.299040815685828,17.416277326657383,7.777805312825986
-4.438343153175035,4.251339024826208,17.21811226546886,9.875495921615148,-4.456582844049883,10.17317822943797,14.775289064029266,-7.579879668572202,-8.552530659013936,15.823149220483891,13.948371853523186,5.687613643702476,3.425491560176269,14.556938298154734,2.780733438100973,-7.851158515647307,21.466064749440232,8.95221820507198
-2.682202686242176,3.4462266233047254,16.78825938466985,14.867035375007152,-4.295199497460352,12.001976622291721,19.379171423978732,-6.328432543324532,-5.683039750871862,18.611377120638547,11.717830758506004,7.773150568427707,6.431283475401856,17.809628248724678,1.9615655518983468,-5.444961270597847,27.66581043735396,7.782995321140792
-4.2460165647074515,1.6640520030029675,18.996778006759698,14.195810518592554,-4.038571763794643,19.49645372860945,18.22392146357552,-7.518075113130181,-4.571903376087354,21.107136704157377,11.245491232943007,2.829899402596008,9.241227817368447,24.382583900973113,2.31585066138366,-9.775934064521676,35.62478318654827,3.586509322485343
-7.079008784551167,0.9556338792854113,23.745981765499984,11.865750043590658,-8.471876189301785,22.793094641292168,18.43848256915979,-9.195650570892944,3.1794480193082912,19.599385158278974,7.9413857152617116,-1.2318619890623772,9.023244471777383,26.267797843055174,0.5231834034499316,-12.250175268079918,40.75296638261315,-4.7114987027092665
-8.739772500249494,3.957735922170725,22.344300818368893,8.26744522755528,-11.05199033106388,24.040283992993444,18.46025687449642,-6.966558835302841,4.973169889117276,23.07258422253345,4.539875856295534,-6.7559205001387195,13.492288784699591,25.711323919156683,-2.3422445192197543,-12.379376483566118,43.53854341327656,-9.884380400928693
-11.86510347364502,7.057024943113548,18.307380479151234,18.147174148945666,-14.415618288603524,25.77703492528478,23.172055034685325,-7.6668401748179855,9.793778284363023,13.264684516433055,6.4120810047257395,2.175932292006163,14.054473030181947,26.9123693550176,-1.788221726365574,-12.311989162336193,38.70788861996253,-9.979006066015799
-15.771434424616087,5.370615639189555,24.233033521110887,18.750641705151452,-17.683784590091257,27.61262597431605,21.733789271165467,-6.218290801002134,9.340369275196098,10.390784701752242,7.405505900850517,5.446196562999949,12.076998515646274,23.42544632275441,-0.5492108220655547,-9.508894161995945,33.292249338840406,-9.780630775331398
-18.407989838515448,8.859597713977509,26.058507278499686,17.304478083088934,-14.801652716682698,30.23056847213202,18.63763479673868,-3.011540621141515,10.83961963584106,11.032808807051957,8.008380357811177,3.933784436309958,12.735717963795015,22.770122504187995,2.3513185138632866,-6.802149050846918,31.29548082304646,-8.312703687615553
-22.50922360226051,10.199639371048079,26.02988930479762,12.343773702173332,-12.116918437200338,27.28301417642598,16.617925356659438,-4.101368727912405,11.947747628916622,6.499161429965561,5.095596563844159,2.5215731529961176,12.807918008699918,18.11027650441861,1.8351155248288773,-5.070657670020057,25.19782298289274,-12.8019249204672
-15.965613247113927,7.925871727548836,24.049479008418864,12.657680842820925,-10.703758955934257,24.92230336556201,12.744843692923702,-1.5774976420966091,11.297548942530506,1.4773561625347167,5.698450460180976,10.194062766392923,13.856114130809003,7.590330458323894,2.4920445526608765,1.4474013186175156,12.753031829494073,-10.650474170238702
-10.886756018774292,8.28838587927082,18.84768054197135,9.26164227162848,-8.804276532168709,23.734282986219,8.971457553177613,-0.12749864192460536,8.107765734131084,-1.0052763293631948,4.738677009177859,13.669786260115554,11.192726040319089,1.8548960847411955,4.224397250287015,6.5019459899142,1.9689243679398984,-3.2255888420196746
-7.956293745155277,6.501946798299803,17.651119088949454,1.7649811269171067,-2.6097605200844427,12.976500064406407,8.422725642834251,-2.9740771953361334,5.112818841439636,-3.487897849446991,3.7787363220996624,12.558095954884314,8.33342323958143,-2.6117883045552635,2.2468925952718872,7.846860461481972,-11.744532444313997,5.957022463098259
-6.002371391872785,3.9337556036026475,15.088569011660416,-4.168200274412527,4.754800417470356,9.641297845545742,0.9421521647306896,-6.992185965785676,1.5314505013832034,-9.486248821842793,5.65063797378575,11.155913295617776,5.961800411936071,-2.294128125810161,3.2978617669904593,1.380530408806388,-15.594295321207191,10.256602500970676
-0.8257442050778847,1.1697500189457521,16.726469247022386,-2.1901960924606563,11.043337397644812,7.966764231671933,0.9829900753370673,-7.982542792995996,-2.929308293583408,-5.621281783225086,10.256658200074355,13.174210845130604,3.003612590104975,-1.586806694841341,8.64680137726458,1.9469416390929037,-13.096164841925745,16.411503421719505
8.550126893355998,5.631908112814399,14.36151507768636,-2.457459176080544,12.251942211014004,10.589550978119698,3.2716271454812755,-3.796678391447867,-2.898277556443511,3.321709968954446,10.077083875979916,15.585574619252926,3.6581324749058695,3.4163997056968824,8.234909077630958,7.007000684898292,-5.812787892323168,20.320067170060025
12.261771547781144,10.67949191879678,12.583563479656725,-6.23958857423424,17.462843700713833,12.919635366262527,3.120395993848387,-4.590999080147178,-2.867708975669901,4.354181931203444,10.385364750465268,17.41340066596989,4.1166978064381095,7.930175111628225,6.359069232529153,10.505933830048477,-4.9749285912223264,20.81036680187552
17.633481361591812,10.25770846749762,12.1738173319151,-5.431040783324683,16.910326617021894,15.933484258906562,6.681636886751068,-3.529464757420992,-2.3493094022962984,7.925446258892931,9.130619005710576,19.927210515341677,1.840196708342451,11.173170164884056,9.366977679879023,13.615638452120795,-1.0122532192015328,19.054260003671217
18.70809494831071,13.351055339524954,14.40176601891132,0.2611080395493328,19.96959241416122,16.798911146583993,5.947316348411926,5.44270237624638,0.024134075578654324,11.69165023481401,11.293321087499699,23.71291894837376,1.9068208287049124,14.121874160667794,12.571004572189299,19.558822723810632,2.559434099417622,22.766671882827232
18.415304920108056,14.588340898035183,17.021218124219185,-1.7610403603339986,24.589886473050484,16.394722240707377,6.093194486562512,6.211972709495715,-1.5091805477912246,10.867496784972323,13.455378795456252,25.45012854936168,0.5079072891540086,14.72538585259803,14.799197678796006,23.25728508923843,1.8336977598643784,26.478731428200163
23.102824420445145,19.1454080408989,20.61805458189673,-1.4387888752586218,31.74784353204241,15.404406973722544,5.458988351832014,8.93474831051302,-4.117174023060788,15.121033585373139,22.94105038476573,27.482588220875495,-1.770608623166666,19.233711383088828,15.953838906106217,28.129045502053234,1.4979829146222343,36.147521998439814
26.813490946109468,19.990880767989143,21.481213691968097,-4.6316523409343855,33.044954584131496,12.655956525919883,3.2633334978306046,10.193004932543472,-4.577136007439406,17.127860802303424,26.664125499124268,24.439082771116283,-1.4130595242868171,16.806751924438025,16.13252466270169,27.631032477545375,2.23576714057846,37.222000275161214
24.859692215345973,19.468524774895968,18.14575975909536,-6.066163469478079,30.727403505781616,12.34853670832465,-0.7868468890796336,8.22889945903086,-5.721135904321601,16.985566194743207,20.229931772874288,24.913451216536348,-2.032793134259661,12.22964670589343,15.13987718806718,25.18126202433056,1.6054802456827204,30.776360099058312
19.389857349518213,19.043184765226922,19.79144879805384,-1.9337212793404248,28.408581650413765,13.798425363972445,5.808533359038627,2.0658502275722004,-5.791329179355612,17.526153658540384,20.14255239348782,24.413392760759713,2.62027454029646,12.826635919147591,13.073491026166264,21.56098911536192,4.880513570178582,28.23651449413617
13.919623424255347,19.886730922468566,21.340004856179416,-3.074385966852647,25.893227534428622,14.368744690942822,7.912419066292383,-2.4366830945127402,-5.275999162351874,15.038557987548447,23.472179474186802,18.83723493664176,2.0967539215126845,12.933480123779297,10.909879502364609,19.79759464947088,4.052806003039713,25.403136789764847
9.816156828298244,20.143642221376393,27.67423963003549,-4.507663936568975,22.88842088245805,15.71955673303368,10.50524873368236,-0.786449693542754,-3.589193875882654,12.061808909779035,25.335849593631757,19.317910115588163,6.455380886211148,10.792249381896415,12.359971825333206,18.719174562168135,2.4425946438550525,27.25672662184183
6.981757452482385,21.474075056835822,23.461810829268245,-1.54603487864195,18.222320632389344,15.897586553302094,14.85646603915881,2.3289731683882735,-1.1215385726634541,7.03331071415826,22.608437980869184,21.85139833755634,3.78189983883193,13.141237138125202,14.786943296317057,19.59526611994307,0.1474116697573855,25.984618413784705
0.4358377960825712,22.217821478050446,20.3239107353234,-6.592083027904321,12.18795063038915,13.340189707708115,10.6142429820235,-1.000697708999482,0.17381782815187752,2.589750246908384,16.071128863016114,17.55079004345221,4.232704548040981,7.870793076892072,9.206215354066511,13.831972632101632,-4.688364894473509,17.19216625774605
-0.9347909130918484,22.08188076359931,17.67451248254538,-5.680802758036021,10.449509172946826,12.637159044524944,12.524790273050712,-1.1073528254894824,1.7617474918890734,-0.09705192950161745,13.438805479144502,18.037298533462007,4.194447550643453,7.285702102663465,9.778093144406709,13.245862867300476,-8.939811477892942,15.332666880302305
-3.575583005457724,24.874876198365754,19.224528223420922,-0.9607154987889537,9.100734706034373,12.421165061557076,15.119166010556528,3.1808933916750433,5.107122767003641,1.7072484965562467,12.758234330791394,19.99050032316651,2.299909570181927,7.186591322828489,12.303226011484593,18.032232265310327,-7.528848759251062,15.03489457625243
-6.998293602750074,27.764703716140005,16.379993391337415,-2.1976463016794625,9.801855490114168,11.61785141250307,15.662844716263391,2.2935745537588508,10.209950086600859,-0.8842752434059271,6.119059385178836,19.50402297465258,3.4319668993516212,6.987424619388318,10.433792413546772,18.52294224033632,-3.2876732734452183,7.997890285699304
-4.757556004369818,20.30195456117738,18.906597194758376,-6.657229330046988,10.209131012508537,4.562948040305745,5.4641785690298565,8.340242025953215,10.429509745279898,-2.012231070655849,2.603371088868677,16.773116658005346,2.707722054750557,2.879460944049958,3.6814346693956983,19.30788197958595,-5.396233423037437,2.5225096583779436
-5.740269023348945,16.744627342363067,17.624425978758012,-7.112842509874067,10.810893745315305,-1.3216777149130792,1.8084785392089788,12.727005696910217,9.769775909124444,-1.5790333984593552,1.6251433932178578,11.700055883994892,2.470950599274942,-2.793602522151467,3.7650121246894033,20.582340064694634,-2.5263507951640456,-0.8053542016497879
-4.575301711027542,11.135567642663608,12.924023444055925,-8.935712014375898,11.021239490223609,-4.86425351861941,3.0354540361920357,9.985022563438,10.47688362524751,-7.983319766155651,-1.6009327129188033,9.65594621512344,-1.8682711391448938,-8.274014331057767,6.875803011644924,22.443945029779364,-8.350226922504739,-0.3255740824263196
-1.0673836325887767,11.385019405434267,11.34836984443842,-11.442283858961765,11.523813094458086,-4.7953487870933955,-1.6950129646100436,8.415190398084874,8.351557304396554,-4.428030401846836,-3.3639428993725407,9.664137755125983,-2.594991220817695,-12.780599620196433,7.935534569883032,20.888698011959306,-13.688150472574133,3.180532732880323
2.83028508830475,10.266276194702902,10.358274630883189,-12.581795390994218,19.447668633111327,-7.072205052043238,-5.8399624900247,11.240203896866293,4.175066328621183,-2.4368497298180642,3.3673903640186733,5.767433560056432,-5.666340931637649,-7.524247912846398,10.655130342555456,20.311163489828257,-10.922932141055455,8.541017051237274
5.4574772833352245,6.216779929216001,11.613829219293663,-11.670691978774439,22.390310489796732,-6.030791968683676,-4.418958041839058,7.131753882521445,-2.638528044361248,0.040964236757924155,5.213877039669247,9.001081220986682,-6.785388409681051,-4.712261833570036,10.346947975165406,20.22301662987239,-11.285324516783586,12.04482752943151
6.228200670830133,2.947490008777713,11.501606308551652,-10.56451986063438,28.457366774330126,-9.288530907128571,-9.346351684709873,7.222810815988735,-7.20633085657558,4.567865402691926,6.667693742711683,6.083548838679771,-7.612323469541776,-3.368147955743341,9.159386742262395,18.866379681495665,-5.693268148712928,14.668483488012287
11.587820014894426,-0.7135215713497693,5.822231521169581,-12.388375493068104,33.25427312057329,-13.23220203489992,-14.860443924004034,7.900025804338151,-10.11428032982681,3.1358498442750626,6.3615529737443035,4.925031983436764,-7.3658919127538365,-2.9060425786558195,4.455616537973268,18.877970919437676,-6.158773229785908,14.165798005414326
18.606556793845247,-6.035840863462557,7.173461264328642,-14.017259532526893,35.70682655876849,-14.834530732778969,-17.738635803007508,6.3313112855100195,-13.901469205570713,7.8544088979867865,4.393033716676952,7.380944253075075,-10.440699222376853,-3.0330538864108494,6.001340209516484,16.937384207758374,-3.5021179838712726,15.90788712116283
20.64363814183375,-5.792830744426748,6.375375493451465,-14.962931163132678,39.91668255411914,-16.537074462942357,-16.71148235273076,5.251070299450314,-13.294370717259893,9.641305168857837,3.789447629454683,6.1268696466572585,-13.028100129356291,3.8680418829984804,5.49557870472612,15.583675579524506,4.718037785850212,14.621172480606765
21.117038224673443,-6.62525331689357,1.963015354323712,-9.365973383096506,39.14548560699772,-14.043005115473555,-17.150264012127675,7.39370530607909,-12.687574063559435,10.156653644051506,1.5233270411265742,8.096420257372891,-9.756924909236693,7.250130360996253,3.914838383235021,13.937877950478876,6.00140265550563,10.98919721237233
18.65950175854966,-6.09170088690589,-0.9855095769577176,-3.281212989920055,28.803348682144637,-13.11424017919774,-14.465170701481377,9.145865083609916,-7.002867332081594,10.181650706043074,-0.647565801893597,5.76986073268286,-9.611690994236964,5.843584126916426,3.407518658488037,10.730391093907244,3.7658995943599534,10.38307536357054
12.00143104090688,-5.559417573658223,-2.2749767675819186,-3.8377114081976536,18.75372846489224,-12.383680347418615,-15.980635514117399,6.503566885823782,-1.9043897017328433,6.298211059494051,-5.653039437766164,1.5885433714589876,-3.0219445182069933,-5.429874370619428,-4.229701264042994,9.574499642050197,-7.652715380424141,9.775354781167401
0.36151693907406557,-6.9815937976711595,-2.3937677788816423,-6.933889417342449,7.629439710826286,-15.757742388864923,-22.18504851393979,6.4004943085351504,2.119580204057584,-4.521118388630892,-12.223618744840039,-1.3225771254227716,2.980953259514642,-17.195175307000387,-12.844454056396959,3.145819220441693,-18.488760298094093,2.2322732209631653
