Fp1||F7,F7||T7,T7||P7,P7||O1,Fp2||F8,F8||T8,T8||P8,P8||O2,Fp1||F3,F3||C3,C3||P3,P3||O1,Fp2||F4,F4||C4,C4||P4,P4||O2,Fz||Cz,Cz||Pz
-3.31881692366321,-2.487508498023489,0.20425871294839015,1.865267831257128,-0.6799855670950161,0.4644219385273196,-2.685435484286945,3.834070487692566,0.9862512760954232,-2.6713171755843543,-0.4219997943112006,-1.6297331836697264,3.5906048973691345,1.5829978681980266,-3.5452058620039963,-0.695325528695685,0.9715435784826774,-6.514922628602843
-4.326034184020239,-2.381870302516905,9.331781815543208,3.740698725067955,3.6479935683811866,6.441000014872686,-1.829543471393693,9.194259784805134,-20.437638884509646,1.865371401024773,10.461872614397121,14.474970923174961,-5.851720920454451,4.29815064133976,1.5646348828168097,17.44264529299319,4.582794029507639,6.343501546344393
-15.001027866883224,-10.088449452894519,2.639208760244095,8.057701715586706,-1.0080464329896968,-1.351902049773173,-5.270147815275532,5.766627242825253,-24.57573544356707,-11.761375728938777,8.357870788448476,13.586673540125558,-6.407125988070611,-3.7280676167138083,-3.9695221109213694,12.241246660523089,-15.828464978857124,3.1864716763969443
-17.570133430288127,-15.157946321246193,8.837883496185338,-0.32068200473389896,-6.444858411659646,-0.6483830606973262,-10.370589164104917,9.860061330416203,-33.69405763152811,-19.527812812240988,11.039675876765367,17.971316306938004,-17.021262877465034,-7.456410663382197,-4.620151720707039,21.494055955539498,-24.32426487199897,5.400977930802229
-21.115565027284635,-17.98107038480736,15.915872195774725,-11.726345583417244,-9.146766999382718,-3.069777993711339,-15.470785623266298,8.681442970765705,-37.636255463468366,-24.26607316139195,8.643828441706676,18.351391383438358,-24.60804583250443,-8.937737668565537,-4.977223601286919,19.517119456793665,-35.84632088745628,6.248581740453985
-20.852137832438583,-16.409429754063034,12.447187348255186,-3.5027030679115674,-8.332513817485255,-3.5379485618414996,-1.6252352628293547,1.4495540767118493,-41.67590234609655,-18.163596909956468,9.08057763684413,22.44183831307225,-30.437077277333117,-4.168128788595021,-3.9665587544142564,26.525621254930087,-26.956857546476925,5.045624890666204
-16.291607675699645,-12.00562647167105,10.639014449339914,2.963190349977983,-6.150572959271111,0.09551105793346171,-16.88164577274576,18.926625516905872,-35.65664913972724,-5.712699917360393,9.713136581959864,16.961183127098455,-28.551287191706983,4.508581848137665,-3.7366838487423193,23.769307035166605,-13.964800728390642,2.9639467404475166
-9.19185847162531,-8.187759383195678,2.9716753989156732,14.312050552519024,-3.382210427567643,1.482783077517027,-10.653407104865519,13.846352620149501,-27.488828979592913,3.8090722456976476,10.248504078704567,13.335360751829981,-19.146043460953976,5.568731688002098,-3.99468225997426,18.86551219819258,-3.1203301687623224,1.9566491273362494
-6.8772653602072555,-5.248879326586813,10.050921190932936,4.566907865416324,-1.785269903278294,-0.3527747622208368,-19.85524409741583,20.77961572494278,-15.609974518365984,6.788322512883581,2.6787173956596235,8.634618979405602,-11.88951499724032,8.485071465350215,-9.42818229055973,11.61895278451129,1.4748436153839668,-4.6170466386045
-6.222825303512121,-6.118795739563279,-1.71754299972216,17.47841871959917,1.472318436050497,2.9873381944550843,-15.58056437939538,15.507334324525607,-9.004654623522587,8.400850025928605,2.2383559136508837,1.7847033607743783,-3.94968017018473,12.378630628645062,-9.685520411380278,5.642996528589907,21.207679241564275,-20.37052865039388
-4.103535262409112,-10.211638972057468,0.5769090198647775,11.249058828346502,1.1170316908902906,2.420887020239899,-13.552362393095144,13.068838114695419,-0.739226774286244,3.763706307132387,-3.2798259834361225,-2.2338599356336575,1.0600716401802597,10.70628887904845,-10.626218077615349,1.914251991151703,16.917335421278587,-23.233198644372695
-6.476562013124998,-14.890726331145064,3.1645036662018198,4.043155994331701,-0.019060904858333894,-2.4428243974813704,-15.04028653893857,13.854794389193412,0.7876861155414704,-6.537224038290901,-5.184317516072019,-3.2257732448814735,1.8701366872250413,5.909437204989428,-12.250332430487665,0.8233810862233145,8.428244912773128,-23.459169596876137
-13.830238851607831,-18.98424067068014,-5.771377804388489,3.380343991777455,-1.642991666670373,-8.674129023493382,-22.388219789848623,16.595687433691655,-3.9356847285149197,-14.884699458734566,-6.697852171653162,-9.687276975960833,2.0937981313834655,-2.5979241391039576,-16.608733223729754,1.00320618516481,-8.361306831623144,-25.833720248026143
-16.301178573080303,-22.589914858030124,-3.1835408417036843,-5.876339466011535,-6.098552207156321,-8.65578827204519,-17.920207757002057,6.447574187605032,-9.342905788550668,-19.716258613417512,-7.3321692586457665,-11.559640078174343,-1.5893604869043854,-8.761069341468078,-15.009938843061773,-0.8666053771287594,-14.310493150730846,-25.571669977967964
-14.963660810704727,-21.410882796228115,-21.68970268330111,8.30483147855397,-8.698177170095324,-10.884090616307411,-15.0154567218743,5.285820377361042,-12.504302707438873,-20.54367560520944,-6.1107193085111176,-10.60071719048144,-10.253627644294982,-7.0135620446520015,-13.020497762222712,0.9757833202894373,-19.282837120013653,-17.69252182740469
-11.477911571822084,-17.986319494096087,-15.293099637375624,2.661464699747964,-7.6840337329809625,-7.9371127840597815,-20.51010362613036,11.450274815126544,-14.982457334717957,-14.82791227882282,-2.64289919586896,-9.642597194095304,-12.668416570482204,-3.996184143911359,-6.831815412924002,-1.184559200691111,-14.39157659578046,-10.008941908490147
-9.750284814275405,-10.753774129206958,-1.3768412203393399,-4.056167269352228,-3.3491019552661623,-7.5298810849042415,-14.482063810198134,11.757171402454066,-17.461032004037826,-1.0065081513442848,0.5321621182067102,-8.001689395956152,-12.544774717968872,2.7324515803252787,-2.5963867188806096,-1.1951655913543062,-5.593926797533397,-3.7905268345166716
-5.288568768206891,-4.303232725196325,-3.574132153849341,0.945085633781575,-1.6505111744042595,-6.146781537785827,-13.142615613856524,12.554290462955034,-11.639177089294858,7.150731797628822,-0.49187255262842733,-7.240530169132645,-11.152305990058016,5.262011190994652,-0.6072421823003353,-1.8880808816918986,3.691997459134191,-7.14291409986412
0.24701078378007502,-3.1270227491116156,-9.67778634563777,10.536194168909812,-0.24448317820359566,-4.666798260057042,-9.753467547051144,10.325978931158026,-5.036596990581797,14.038342001513598,-3.175929390578866,-7.847419762367155,-4.682411732115582,3.1041483152790255,-0.3761503617338371,-2.384356275547443,11.610604381069791,-11.862897650600736
1.7782072291597473,-0.38917296413821134,-0.8398911734251219,3.818387429697925,2.4314979491445987,-0.8438674452207287,-8.904625036770808,11.712987054044206,2.541965245656157,16.4335529173739,-3.1254373422843256,-11.482550299404783,2.3725988920128533,6.219894104681774,-3.0750613670705693,-1.1214391083909963,12.107018548194452,-11.114478834995449
1.648762278455223,-0.1913781514093542,-4.892933584363453,9.11239524179277,4.717242310062361,-4.150853833747591,-9.717259084129438,13.88326259873682,8.850322956343865,16.289454992575916,-4.246733075632369,-15.216199088764375,9.231410957828658,6.698912611233153,-4.700065041800801,-6.4978665363032455,18.36493856616432,-18.2768102375426
3.178995113274537,0.2007096243759272,-1.5241344049073728,5.910077073021217,6.808056667321498,-1.4040261548584039,-5.355417527017868,10.391415238981782,11.446973888134623,16.926346810326528,-5.856239264308395,-14.751434028339416,14.62442097412536,3.369251319948162,-1.9308553637229422,-5.622788705888205,19.05596950537949,-18.408298819471263
5.196968935895212,0.8846802502793985,7.313321033480969,-3.6401121739737885,5.578884203708843,0.9511414220043737,-8.710010662034028,16.0814402713119,14.628799750789184,14.144880751206676,0.4445831130479021,-19.46340556931182,16.01247498227214,3.0668917892218115,1.4238587129897002,-6.601770249457498,18.769927342562227,-16.391871799619587
8.190928595860951,-0.8739498864448163,-1.2325087298337611,3.2160653076204944,6.889179767469959,1.7426930507484077,-3.6675988824349854,13.374961522142794,11.755015257081556,16.53887295970436,-0.9695307566972283,-18.023822172834606,11.930654341677469,7.842585712349445,2.3366302155837664,-3.770634811649831,19.362210621880358,-9.004862970535957
13.235065447121451,-3.512722839503735,5.846662478336015,-0.27962717777929713,8.297489856890714,5.4628221971114685,2.2520854181840253,7.154881292097237,11.224127007073493,17.272216465235026,1.4250063264930803,-14.631971890574922,6.578189541039258,10.567256632054452,8.131732692592786,-2.1099001013688485,20.9303778879424,-1.7161440016699654
14.66518683758445,-4.687917719921742,7.3590753427641635,0.4237975145319508,10.487408207096827,6.056686803662814,-3.3535760175376303,12.362847347487612,7.567242416986149,21.03241748511358,2.549966008142968,-13.389483935230636,-0.7285757091431275,16.514360533167643,11.582436484905191,-1.8148549681864357,24.35324896519588,3.5210930757162906
17.46179385573397,-3.7159941711691196,-3.531341347775714,11.869391613193347,14.24018583790385,6.356299606037985,0.5117468528265858,8.100115046816779,6.155477986873366,24.889678385645087,4.651450727771408,-13.612757150253188,-1.7864430871981791,19.92202823302685,13.469946705193893,-2.397184507404339,30.704958557297466,6.804469762309315
14.300512402500571,1.9420863036038964,-10.027485371631325,13.744328598150096,13.794004718463595,7.631149967627512,-5.488261404636806,13.702926903097019,7.867694113612914,26.69546336642794,3.530152374075958,-18.13386792143848,0.9630923431067206,19.813619310217735,11.841051831603854,-2.9779433003446507,37.055673466221805,0.22367385162892184
9.478239532869411,1.8368838675683898,11.01549893729152,0.5797582550769502,13.152820366901562,3.533424021741205,0.42399360403140207,8.077219225568046,9.969414768842016,25.180156237472815,3.873617502048699,-16.112807915501328,7.812952563290502,15.603123827892935,9.820742930050034,-8.049362102959662,36.37393490285764,2.0406684740874095
7.487187870418891,2.0231178988339407,11.84294825583793,-0.3778268625264021,10.851754387821362,3.7311778173238626,-4.603479713238525,14.36788281879588,14.90202412987743,25.51955164925827,-3.1073751427823835,-16.338773473732218,10.852809736571091,16.177332200095087,7.9949099371000685,-10.677716563032863,39.011361374910614,-4.834684194414676
6.764790252099012,1.621809383780759,14.232510607585278,-0.06611075588382365,7.769713685418132,6.36885463317937,-8.46120069387381,17.535630306585528,21.102939027020927,20.096280332988776,0.16554336901184835,-18.811763241382813,16.03973551187113,15.286084714107233,6.46115421905772,-14.573976513696872,38.0341510024337,-10.148353766865835
2.232800987825418,2.68371269802092,11.543432021004865,-1.4148428760387404,4.297316004120047,3.8290916806633364,0.27670845549963996,11.525684622754238,21.34542738406243,14.281452550305158,-4.179017340043417,-16.402759763453457,15.463402858488704,11.464450559849888,6.488970172648824,-13.488022827921004,26.8991325557527,-9.408115555924931
1.6061384814003796,0.3258838797092656,7.974968084866791,-3.349805450040174,1.9970715178573548,0.7017443247543024,4.227093525090902,11.767969755490059,19.24276632790686,7.58671430455256,-4.22683652449658,-16.045459111967613,13.420702719618653,6.079573071592717,6.320462419199947,-7.1268590871904,22.20801898858325,-8.375806624956978
2.4433163168581764,-0.9594767395323363,-12.977066094544613,14.73476722058671,-4.111578632347914,4.799374027752421,-5.692290420008737,22.071136849918577,13.720661536628148,4.699572038730493,-1.4428034406324712,-13.73588943129857,1.6106780564182244,7.822925821830733,6.346206053724078,1.286831893368753,7.651864686420785,2.3236866418766997
2.791136953404232,-0.0981884647591178,-14.20275562380186,9.771794181043795,-4.751163679285012,1.180289509632037,-1.7467188944116074,20.169218680324093,5.657973603210097,3.4714906637846505,-1.1981165368692561,-9.669360684178102,-5.4157164394225,2.0457822676027133,10.667770510331039,7.553789277774817,8.816894507034855,2.865814508757653
7.239471634423598,-4.902923657301242,2.930665251205241,-13.844143878607715,-3.2420617579857867,-0.48744924666831446,-3.663127707625248,20.90618753618129,0.6211347974465915,-3.5195825317507428,0.3158537403747489,-5.994336656289715,-11.46718064010497,1.2482674540182908,8.835722180948306,14.896739829065964,3.5346984315226972,2.8210079626129954
8.854578482831664,-8.537692333244195,-13.335431128095621,2.8722104278352485,-1.635100796632206,-2.157052548310016,-1.5781559702181882,19.985096922302994,-2.952437450121902,-5.4337024397092595,-0.8072240822727783,-0.9529705785073102,-16.34844644514963,3.9654494688147564,8.17433642763802,18.823448155864146,3.4264446816570437,2.0915826483751037
10.566147613468145,-9.147047903781436,-8.605708368381702,2.302772741154331,2.2181736963123058,-1.0941583506323915,-3.1091768170268734,18.57783209829581,2.261528876838578,-8.032739292921768,-2.5165588708955355,3.40393336950034,-10.879732990459415,5.705006391793733,3.8983291283018833,17.8690680973364,7.417795517011222,-2.740508030901074
13.350714599689027,-8.488878786725511,-3.583631701801708,0.3657370289575592,6.852879429139895,1.8222598697785761,0.7282539244432265,9.848341968255173,7.571436687921761,-0.08611598889109562,-7.7419037652411316,1.900524206392694,-6.096410908047059,12.228679008323663,1.2811637182020594,11.838303373160976,12.96954745544669,-9.526818569933342
9.98156512976426,-8.028098775919064,-4.031031559222967,4.776047111229166,12.171342082031957,-3.2712825539744412,3.6839744714054934,2.7811277075930096,11.02407328151122,-1.4184161704336864,-9.354264183125807,2.4470889779630642,3.4703080054848923,8.106478540220259,-1.7280265232830145,5.516401684655657,8.655643128376717,-9.282860747951695
8.173619447321808,-8.15538509688015,-3.209547056513132,2.3498904642299587,12.509395765880823,-3.191042675158514,-4.203169555443425,4.40753409408039,15.060824625325038,-3.4358204143728166,-9.892761315105425,-2.573665137624406,8.445236241633694,5.0572680715087035,-1.2229857813728642,-2.7568009023894957,4.534728571410243,-12.262720255050514
4.508815764162455,-7.015285503735295,-7.6622693752564635,1.0951842427476133,7.5740499279656515,-5.652032957729226,-9.65178883130466,3.6922224236023364,15.091719805546914,-3.208657473951652,-13.947328381669879,-7.0092888219427,7.0704908482227,1.8114314101204716,-3.7468360164530212,-9.172635679336308,0.4113877885695256,-16.806237598694143
-0.5245977263441137,-9.588388092527355,-3.2288481795034345,-6.800708209605274,4.787275127444422,-10.654303377954616,-12.173656416455682,2.7836473947131086,11.99562181227698,-11.479338904737201,-12.53347220097724,-8.125352914477908,6.5727018278806515,-5.635064137171579,-5.295662801563076,-10.899012161380043,-5.765291484781098,-17.44460054824704
-4.680533098717834,-10.99184771963275,-10.124457040179939,-0.34139009367260975,-0.929149159120291,-12.143122969986337,-16.45640400425441,6.076390254181501,6.749051882371226,-15.552417747161996,-10.82707138057171,-6.507790706775457,0.21344324303620854,-10.348584083984985,-2.6468131462884927,-10.670331891924553,-13.01883066310221,-13.88485624353829
-8.74029192775141,-13.08120180938118,-10.575407979480492,2.2111239916695054,-3.618119148382199,-12.462325331069183,-17.91017636124269,7.417994880759242,2.574659835789777,-19.236604180021306,-9.707063425997983,-3.8167699546485263,-5.46425724642633,-9.692434164604187,-2.245749817864075,-9.170184731023522,-18.224279860181177,-8.373152230109099
-4.793636437465202,-11.071259941124929,-15.031099273779073,7.399885603519317,-6.502358942170728,-11.416641692658892,-15.949083969350188,13.742140941732664,-1.211213497523655,-13.742758898061064,-6.439048919213381,-2.103088733985949,-14.952695637983377,-5.815148974199426,4.30604146445976,-3.664140514708357,-12.78785461399799,2.2155404698259336
-1.825117383884184,-8.77071129933466,-1.8115320384632354,-1.279280190254629,-5.382604687058695,-10.080352754917024,-11.256786288569572,20.458893422259543,-5.0969111346558815,-10.106262780076204,0.6371369549777608,0.8793960478837235,-20.048660693100743,0.013657018144944466,7.633366853285513,6.140786513399296,-9.60047205702676,10.849846650516081
-2.6668473497888874,-8.13274646962856,10.137673375863356,-8.005836129122345,-0.45419111495327025,-6.012059391510326,-2.2708131019265245,20.048583803997314,-8.398882480557756,-6.1787006672653035,0.38849559065363604,5.521330984559333,-19.18966644654452,8.868155628861908,8.71275356330252,12.920277450001064,-4.365285716121827,16.064883058938044
4.986011379533897,-8.669110991156812,1.773239546585593,5.091567820597787,5.841418755271947,-2.0438792360621068,-1.979695812348739,25.011379047141457,0.1134597828595294,-3.5226503554806143,1.2135769439714537,5.377321384276652,-7.9811513774522975,11.861429758851951,8.520729447516995,14.428214925098715,5.2613975227350895,12.782430795958046
7.558995988871563,-4.227399927318313,-3.271677835125457,7.153069617123813,10.867446175361211,3.777300576287743,0.6518399170321718,26.558057565002088,8.330503925380436,-0.8686139563866498,-2.3564675975723715,2.1075654721969332,6.936122523037977,12.802069162354194,4.908775345082631,17.207677203220264,10.587947682180838,8.522120155347077
9.446668486371529,-4.9640493941271675,-3.922860371824484,10.385870897315552,16.47936820913594,3.3458469306944014,13.924653368522891,6.231280358413944,15.177963753579245,-2.220610280940777,-5.243450183788818,3.231726328952684,18.823736676562287,10.420461799691111,0.7089175467066375,10.028032843818083,7.805623436162775,0.06123070905961647
10.84430872372825,-8.339987737669661,-1.6451902257834101,5.317155288726893,16.622384750848973,4.864970592602661,2.291280174888449,5.242586576920294,18.312003409810018,-3.1840911728211494,-9.107566509900172,0.15594032198041674,25.923818432812514,5.204835707138029,-3.1023139797339088,0.9948819350538085,3.750378878800351,-4.397001700430618
4.818182225159026,-7.616858926263421,2.0964511300031177,-0.533446470071933,13.151972445912914,-0.45456315683468285,-3.5837945400710725,4.353373214593805,14.998157091532153,-9.227938867872478,-5.257291296328425,-1.7485989684373182,22.962817706694903,-3.5284731447998983,-3.009287246667921,-2.9580693516168797,-5.386523723887281,-6.21979910767406
-1.014441466851252,-10.11901995788175,-16.428781834919583,14.80704225369581,3.5290094545724595,-1.5774664650448815,-7.216293019224264,2.001087290469499,8.263766740846085,-12.14895057480453,-8.341298641745063,-0.528718530186044,11.600885205678217,-6.599696151440719,-3.3089886650010794,-4.955863128455147,-13.1597574410618,-2.8680733023770673
-4.60278322362848,-7.936218821520167,3.522211267634468,-11.650635446246387,-1.015884858133993,-5.437474317909749,-13.586801920051577,8.537419251300486,0.9408599599522223,-13.216722843392525,-7.812565180605776,-0.5789981596472176,0.13889924613375249,-6.9386235400594884,-2.927228089100089,-1.7757894617612755,-16.15138323245578,-1.763824946876098
-6.337506608403384,-9.857675527405165,-11.098572462363034,-1.5849860844127202,-3.8030945362359763,-8.03065343472096,-16.249950611320106,5.700340885962353,-5.40808506372,-19.85328835685091,-5.331284564426504,1.7139173024804037,-9.079382683947028,-9.525857070707092,-2.938284771787518,-0.8398331698659964,-18.267790412035577,1.6828479365511857
-5.7303546740810205,-15.199807756513668,-20.739760840509263,4.9643032168255345,-0.535699993723286,-11.700822249317813,-21.06524202351324,4.720460781161998,-11.857347851142274,-21.902285037721196,-1.7763880329691437,-1.1695991323785089,-14.78443687504375,-9.96685437615947,-1.8773358026377014,-1.9526764315449947,-17.165270668585983,1.2218387539831754
-5.0274863115592385,-14.392177310250695,-4.014320643161274,-9.874147183387574,-0.002918896164491258,-10.197916646533614,-15.825495465016225,2.3750413332312448,-16.06318567448173,-15.26212912434967,-3.3003243139254463,1.3175076644653458,-18.148181714752297,-2.89049455162405,-1.8928937023231835,-0.7197197057777167,-8.644616275037794,2.419628032568328
-2.2757766641283657,-13.294267416302407,-6.040138977505191,-1.5684204779831967,2.092168224110778,-6.84232960740784,-11.175439743076202,2.7656748745540387,-9.23644354526902,-12.82368203310738,-3.2623777094267594,2.1438997519512375,-5.986846342049807,-2.0665725628399425,-4.352208082543402,-0.7542992643807787,-3.3505935587238893,-0.19262779141194386
0.18095951507186814,-14.054565675497084,-19.199922575712236,11.32650053837212,5.163593809886399,-5.931030058362706,-11.216733388439174,0.13052148556520748,-0.7523046639178412,-7.750940036746023,-11.233016930340384,-2.0107665666939285,5.683677290160419,-2.221622792812765,-6.813875668457064,-8.501826980236066,5.74808465537128,-13.548637858182376
-1.7589308596155715,-9.153441930404057,-9.215814418000877,1.4664370149157464,6.672235510776449,-3.9483662420674066,-16.63301234962626,4.235321507999863,8.02198400068675,-6.879981365910101,-12.368275212453304,-7.435477615361085,14.519582373068122,-3.2580385383688064,-9.375593375135306,-11.559772032477012,1.9518773143003305,-18.31217870437939
-3.114930017819786,-10.114523886160548,-4.506225967948039,-3.609139356160102,2.61410491199965,-2.4568874007793244,-9.259967063836589,-1.912405857570997,10.836290074504323,-8.843632394799847,-13.79717689770034,-9.54030001002577,14.563727273404961,-3.5156878834104335,-11.646768331708715,-10.416426468469115,-5.071164083818587,-16.827044691556193
-3.3011174395642295,-6.781419495259561,-0.6765673272860422,-7.31825989276288,4.122163386932957,-6.827793140832026,-12.730799098840961,3.0743501989413566,14.52662002532211,-11.786429091056412,-14.250180268224753,-6.567374820847038,17.339707440225,-9.440029916121768,-9.135181466165541,-11.126574711732742,-13.074973490114692,-15.929285764290139
-6.6144585236457,-5.599551117016894,-4.367572570859114,-7.21949086129498,0.9423273151121903,-7.88127827386497,-11.224981375885033,-4.535275643204308,11.182663285770975,-14.7318253585489,-12.262427737827343,-7.989483262145037,10.2496581447747,-9.507498056147668,-12.778535504972279,-10.662832561493516,-25.184657674601276,-11.517284533959117
-11.004164439999922,-5.592351470422672,-8.157260544893548,0.3004950254702121,-4.288665098246698,-10.304935185627485,1.116925298985116,-14.29193976433843,3.7341202343870656,-16.31264239853363,-8.126900677356204,-3.747858588277027,1.5944727264683691,-13.776884756270032,-10.467305332410087,-5.118897387012588,-31.34152551377914,-8.864566256788908
-14.810076168652598,-6.759829314735477,-18.784021782070575,10.749433323042618,-6.78560520623207,-11.657339695869894,-8.1274724287134,-3.929712018029255,-4.693991412498956,-22.87666112673731,-5.066312321770701,3.0324709186568164,-8.62586166389076,-17.65831985806083,-8.646935266109347,4.43098743921932,-43.65518983806491,2.575898089671014
-14.614194187642978,-8.516045637336116,1.0573946050325471,-10.443523648918879,-7.818064060644327,-11.938509583456938,-9.758532325026556,-4.1131573659994345,-14.492330657210072,-23.974529387264404,-2.201750507962635,8.152241683637312,-21.387933507188013,-16.757247042499138,-8.001061741209028,12.517978955771813,-41.32460191576863,4.83507774880986
-11.58843155529536,-12.52118814923641,4.393610363548547,-19.72303070588709,-10.608767295603306,-13.101615879322319,4.915263949089965,-11.131316118318889,-21.26632523953892,-24.58681619106961,-1.7793504746843967,8.19345185848799,-31.320576359022866,-16.737855536446382,-2.670251370194014,20.802247921511533,-37.82657659785126,6.506847587247426
-8.95551264259455,-12.818139564159958,4.79904670667576,-16.796120764619413,-10.079532383710285,-13.291176194360345,5.424682443528525,-8.773037650391935,-27.945731345709515,-19.73299927704639,-0.2834405407787468,14.191444898901636,-37.642535700805865,-15.647029103359062,-2.420307937257286,28.990808956490945,-34.918996649909886,9.642014151583645
-5.738877743087638,-9.504561253086457,-9.249913808448824,-8.791814187317701,-6.035063527273259,-10.065760142722048,-1.8825412814026272,-8.561969267619908,-29.452368341199694,-15.565536984124442,2.5789457704738386,9.153792562974603,-34.39669488574799,-12.410569394800973,-6.079367064827897,26.341297126361702,-28.695592586715563,7.795160830242557
-3.5010671237242588,-6.7797384789035195,-1.9128841180761498,-13.190850963661887,-4.627817734804776,-8.405924034612804,-4.0179438864501975,-10.400486858657043,-28.03238391157559,-8.959400569147395,1.9249148966843652,9.68232889973749,-24.31747420457834,-16.794285407563553,-7.1043873868612835,20.76397448448094,-23.746314946439753,2.626463643076904
-4.097592984857955,-3.862410603276487,6.106691820071212,-18.957910116534464,-0.19366513143027797,-8.995282063623915,0.09269509185353719,-13.897992682700135,-23.3928222529776,-4.797494222524991,0.4888771626522104,6.890217428317101,-16.194071874756848,-13.172971858463047,-12.136121161591973,18.50892010891357,-26.028319221977252,1.0696167448974325
-3.1338708555505383,1.3958924864163613,-9.019677137882494,-6.170815453907431,0.5289915090272542,-7.3415866517959625,9.570442707051757,-19.93343914505547,-17.291537809062543,-1.712625022258786,0.4192965770356061,1.6563952934257413,-7.878017235874858,-13.363246569001745,-9.162690973901896,13.228363198008513,-28.99856672920453,1.171460074232046
-2.4654103169927186,-0.47762910460845376,-4.713218364115796,-8.716804724856532,-1.6786042261472898,-7.448812077416201,6.3486051127786745,-21.6708166402714,-12.169986865140906,-2.4392234051474446,-0.6276188045848858,-1.1362334356364978,-4.447510400353776,-21.759737208520743,-7.168632221021901,8.92625199884259,-35.78213159246513,1.0764914158753598
-5.900874422880323,0.4781160416058121,-0.5054815032756865,-14.388661447132119,-1.8359255322257644,-7.6567821650940715,4.978175005671703,-25.457909881002138,-12.813409091532312,-6.391354934053226,0.7661458036865536,-1.878283109719964,-5.023627323269286,-22.63957505215013,-9.376672305785474,7.067432108556961,-36.71092049264563,-0.2895294478830044
-5.82296928765956,3.2865534282832556,-10.166209098063174,-8.440067001174778,-1.4078560413333854,-6.500634706032644,4.482565710022923,-27.193124727594956,-13.655321290497813,-6.635330372295434,0.49895922807665105,-1.35099952383474,-7.555549060066207,-22.252880960288003,-8.853132323684964,8.042512579103427,-38.03504825462912,1.7609639803501462
-4.477831424928546,4.822639212168882,-2.8355560369689297,-13.722931821573837,-5.179642117414561,-7.691366218700621,5.350057936325751,-28.829646219530943,-14.30509804658028,-7.956387628911079,1.500547584782698,4.547258019468645,-18.195704812396805,-22.162202304515638,-1.6917219768223193,5.6990324744166525,-35.94587896431865,3.0286838629660373
-5.088173383947489,0.7894375609672419,4.494030510224794,-24.377789839590353,-5.826969894102296,-6.248432864303323,-5.9937809252367575,-23.629119767803257,-20.2315758788344,-14.163185561340448,2.3060386527709626,7.906227635119931,-26.39704818685881,-18.461251034948493,-7.131034039468803,10.291029809832684,-37.963071060847696,6.052726420530048
-7.751658654074685,-3.246554754420396,5.2794819304539296,-25.75597747109553,-7.256165148346332,-9.59382233353382,-3.1813665315728255,-30.92780660343838,-26.454210612032142,-16.66184840150964,-0.014305952826902057,11.655656017293273,-39.09326624024081,-18.18140401677498,-4.760617447248185,11.076127087374775,-34.90680592658171,8.29398534637828
-8.36666651468909,-4.746230101215382,-11.416868359063033,-11.314422663715451,-9.564901300420509,-5.520315099362837,-6.037224412396355,-35.10049615572334,-36.19570572126379,-20.53058239739469,6.258436311709156,14.623664168326998,-42.90523404648013,-15.951503134847085,-5.12752341726488,7.761323630691166,-27.26537774249743,7.799300706871285
-8.691039262257739,-6.248682570580598,-1.6490366718858764,-23.338922542079843,-9.139857136748594,-3.7936817361250217,-6.553422968551897,-31.947932589325468,-39.201994003859724,-15.320011538853283,2.86226164512635,11.732062850842524,-37.63761957090381,-12.845799142490517,-3.7395098435864416,2.7880341262318504,-14.745815318952815,1.8342505528452238
-8.04117429283463,-6.874984628913029,-1.5503859497255945,-24.524215137032336,-10.180330130598207,-3.730313214880862,-12.34726785826979,-23.520954554638184,-37.4262232246327,-15.38582426579141,1.1254613563309235,10.695826125646791,-30.224103795733217,-10.524487259019711,-8.0185775775746,-1.0116971260575411,-14.340564053949295,-3.3510750917364094
-7.198333703640107,-5.355577106456674,-8.679471519779351,-10.475696041774704,-9.756602187015304,-1.716866916871016,4.120722849320407,-34.7223109958963,-29.4035176895509,-12.134138574797502,-0.5144951249380023,10.343073017694019,-17.344302997625295,-6.155504691734716,-12.202931215349633,-6.372318345750765,-8.764199178021848,-7.463708495169595
-4.014045984609748,-1.2021621244752065,-2.7234820310549592,-8.635183290807582,-6.989767204082999,2.2466647534390667,-2.755615166921796,-22.77793603365709,-15.817469437260453,-9.08063076708434,2.727614530903236,5.595612242551731,-3.0021620024991638,-6.9655339286486795,-9.16356565907527,-11.14539206099812,-9.052037225648327,-6.011399267339953
-5.71498127535132,4.218061716527025,1.5712653625802062,-5.428243240735805,-5.102543606093601,4.253981123578706,4.426633973620232,-22.356350808735137,-9.2659122638446,-1.9283565013833908,1.6719555764446516,4.1684157518603016,6.259275045495041,-3.5794396948548446,-7.982659348137597,-13.475455320131115,-3.582795728229108,-6.904430207575756
-10.445638479831128,10.807446973756328,5.279007586120345,0.9029719871771977,-7.708280210423403,5.76995854171645,6.526555666095643,-16.75810424267979,-3.9870222965179156,-1.029031069613307,9.307000011012034,2.252841422397942,6.924355832466386,-2.540296434757577,-2.4101242024594454,-14.143805440539573,-3.0988114658401003,-1.5489262488660622
-11.0769971341023,12.218251323905704,11.720109735057367,1.0809863987219703,-8.166262546214062,2.790641197021978,15.06776673554642,-16.627911598796565,-3.49645847372053,2.2112331654329402,12.351287444657961,2.876288187267495,7.586989666918191,-4.043423577705175,0.1320455462072765,-10.611377847862144,-4.475018925131458,4.781588332410122
-13.761488036581095,13.528688481699799,11.519430805407781,3.797348917554636,-9.308576357774353,2.6403724000442637,17.257107710998124,-15.325067252531632,-6.134017027836412,0.9564021948540251,14.515803953566419,5.745791047551268,3.852608223621811,-7.600534484338419,6.089256061994668,-7.0774933005418985,-6.441846512307951,9.645663452790906
-14.299820140349297,12.590299788643417,3.2121068354869085,10.419278658543675,-12.209467485580213,-3.3723726788354274,19.735310381758598,-10.017516579383773,-11.704357839421661,-1.766124987022117,15.605225665988169,9.787122302833493,-5.93893833334681,-8.914688781356357,6.672307331446062,2.317273421215382,-12.807922029351742,17.53554828002036
-14.352165424580647,9.696070444494152,16.388435293099914,3.075420600538159,-15.013448983437174,-0.012971314630794595,25.920402062117063,-5.490507841779426,-19.426191920382415,-3.1242636635369294,20.209457612747144,17.148758884775877,-19.541488507259995,-2.9076823261159337,13.40481056215165,14.447834193492337,-12.14726277798381,27.47465820890349
-13.332566474206264,5.138985964164828,16.08694745593991,7.449772466299174,-13.325932080073994,-2.5160145068388706,26.73022025880139,2.4552236101366063,-28.32291240243076,-2.532055985225771,24.324523309483713,21.873584490421383,-29.33770340496482,-3.251595256016829,20.81793143883096,25.114864504173465,-9.342725679040925,31.748024215410062
-8.311278753948686,5.755100729863798,26.624422886326354,1.3740399244205008,-12.713416920542947,3.278887703874796,31.832889500607905,5.811725701893625,-29.507633096891922,2.647269549450346,24.04410361399129,28.258544720161904,-35.71817717596722,4.799896475663335,23.345179158436828,35.78318752769728,-1.0739145542741966,37.48465340724307
-7.296223284291351,11.446769816816868,12.062815482882254,20.005022692078775,-7.804736182978422,10.92634326264265,39.76355284645751,2.332853792762494,-29.230415202472535,14.952827763907266,22.29792078511196,28.19805136098822,-29.112412870819796,12.94589202283927,23.427998855770934,37.95653571108983,8.264608172259308,35.70002538520986
-3.646658744757774,15.475622180302874,10.293330676517712,23.107745660972586,-1.9202608557521996,10.660598083229686,44.07680951090093,-1.5359971475917504,-25.245094232044885,22.47038895603597,19.476595423543817,28.528149625547552,-18.895513571758418,16.59648642090075,18.03900346241736,35.54117327922209,13.78999418433002,29.03089043476811
-0.5852742704691973,20.28311452663906,12.331458607995877,20.252681732129304,5.5259482288655875,12.149789479547323,31.784191025850348,-1.6932172018553597,-16.477396332759156,24.711679989302297,20.170030540527897,23.877666399269742,-5.262753288515656,14.872770564074301,9.521982864814206,28.634711392029285,15.013996220249368,25.192200936155267
2.5715518842926937,20.107453539448322,2.551963057696074,22.47517042724162,11.897125351545363,13.538442522500755,20.073471544706504,-7.513963907600924,-9.763322407811367,24.020503117665235,17.346857659253526,16.102100539615734,8.75852094326411,10.509173444891445,1.490278825474606,17.23710229751491,10.37413456619101,17.543221083358276
6.2144694961782925,18.561989078931926,7.810724730650302,12.196833910166548,12.70100825455021,11.01792855674671,12.948631240500934,-10.013738998855596,-3.3449900901441936,22.44768826245414,16.08526767699456,9.596051366665712,15.453391934397295,6.435441231820221,-5.372497832447869,10.137493719165128,7.292444233909251,13.017640576814163
7.120793183991021,16.62331212296978,11.115298971020362,5.042926483488513,11.257954403175114,6.932057617923446,3.3783266154080587,-6.26282346839613,2.777645741987474,20.57920009694029,13.260200928800872,3.2852839937829854,20.095423241092604,4.507086632786045,-7.355345064076518,-1.9416496416999571,5.768974563426557,8.783374748475861
-0.1782892529167448,11.45936186773481,-5.308020837770754,17.126991634575727,8.64219374107844,0.4995931076763558,-7.563192400839238,0.4184069231377521,0.20606657248479365,11.188384908578973,10.629484382505808,1.0761075480942601,15.848619884163224,3.3569185997412987,-7.680959083775141,-9.527578029085184,0.13962849383010223,8.746722667615572
-5.819323632324159,4.242044924950988,-10.990017723061474,13.292259757691596,2.5099358005964048,-4.861417705629701,-12.356263999414411,1.1430857979551519,-3.7353480024060453,-2.8926629796894634,11.122837533253884,-3.7698632238617282,7.40060140024096,-3.2651392644422446,-10.743927684360752,-6.956194557940449,-11.646352173596128,10.661545467902297
-7.556158343746397,-6.786464238596311,-8.176817697063619,2.132629307465397,-4.111433690615846,-12.666626071201957,-15.004838643331045,-5.846637652168188,-8.460600570472467,-7.796523828539948,1.0681637209644927,-5.197850293854355,-3.100112797328242,-14.480146678681376,-11.173063330323803,-8.876213250994361,-17.47935088969349,5.543319934374068
-13.494361094306116,-11.469746808461624,-7.024823760971559,-10.394759766256671,-10.050025584237126,-16.372934980023793,-21.36836276010321,-3.851300841714245,-15.141531221257527,-20.808596240755463,0.4852863269672332,-6.918850294912557,-11.9424783890271,-19.74104544976196,-14.925475018430902,-5.03362530886997,-23.12111517283644,2.278889048277656
-16.30957553501792,-13.225809806635338,-11.245028105298942,-8.469335278031496,-9.641694206193113,-18.324100761332268,-37.1109661676889,4.882957703038452,-21.141326423964177,-18.00271173685417,-3.7119454541684487,-6.393765109960242,-13.364637503514116,-23.93069869888111,-17.41123447946552,-5.487232750327442,-20.95427981644797,-3.0380683849629424
-22.251870106867266,-11.566350615395766,-3.649666571872396,-24.806421406844876,-12.066269908779196,-21.05919422216666,-32.73999107740841,-8.062274459095853,-26.362272204355296,-16.371294232260684,-10.351652619660404,-9.189089644668258,-15.667445895954925,-28.02565832768014,-23.610870642376327,-6.623754801451897,-18.01013836424574,-18.415498830692655
-18.821026082472834,-10.495322639914388,-2.5007347182985176,-31.280569738900844,-11.366632854257393,-21.843767214810516,-35.89255650299711,-11.43653013548234,-21.038536698510832,-17.37918626059964,-12.890780683616686,-11.789149536824755,-9.866338420678122,-29.877426956931473,-31.473553809538117,-9.322167520413661,-17.80430350402684,-32.23214313854261
-11.681163369745297,-8.157214866652579,-16.00148091922977,-25.25500155170109,-7.542784893202141,-14.525349718592146,-35.33799968845743,-12.46649137321383,-11.810786845246223,-12.334824708589341,-20.118540559972516,-16.83070859348699,1.59729530820875,-23.821826988644325,-34.74917012383959,-12.89892386920527,-12.03579921982103,-41.85125437206289
-9.719106305709083,-0.1574150436303734,-16.807736197607277,-18.15565222364645,-3.622117370975513,-10.334548512832834,-29.025484248015943,-11.738113550237493,-3.4641910600461507,-7.09764910209125,-16.50736604162713,-17.770703566796016,8.957735940405914,-18.257393859397506,-29.043101465627778,-16.37750429745819,-11.251591263483677,-36.13986229679653
-6.391755328674234,4.910209619922961,-3.2593173009965772,-19.845932823019716,2.543839031216649,-7.513490021019443,-23.302738244102013,-14.329607788499239,2.5364467831770057,-0.5933988097265832,-9.088629045494109,-17.4412147606923,18.074503258342755,-15.039592905061559,-26.855517448663765,-18.78138992703809,-8.224934674140087,-31.699794950919518
-2.6756559524741093,5.678464643474369,-4.55588694049816,-15.09121475097615,3.4354377809984307,-7.136374243970639,-22.36901825853433,-14.088544831432475,5.312270541748578,-2.4901640446895614,-6.163252243943148,-13.303147253559406,20.84206085153175,-17.6840695716033,-25.744952156085045,-17.57153867679983,-18.580993750449903,-21.206734098383436
-0.23095700045956313,10.35061401940159,-4.97454745685541,-11.508780170803753,1.2011490273940133,-5.785144282615494,-19.290597312289986,-8.573489327803326,8.086050361687022,4.106870830018991,-4.80151831180617,-13.75507348858753,17.065149845949936,-10.760866289274183,-21.219125866432048,-17.53323958557668,-12.729397250981975,-18.13746020656908
1.040032852881387,11.60234097885622,4.664530110766865,-16.227622139794,-0.6433483259054018,-2.9714746236493514,-14.75105099022791,-1.9837320812563668,11.834429481295011,1.2287087152180884,-0.21821296682586278,-11.765643426948367,13.189238223667555,-8.332661628679555,-12.496751755478602,-12.70943086056735,-10.885219629176664,-9.89413718017105
3.774106957216162,10.898525269302379,-4.740659537000085,-0.8293159278818116,1.1246517824848965,1.304672327347733,-8.457376331690769,-4.475685917198283,9.233144256237281,1.4732256294004369,2.9967349257231524,-4.600448049696891,7.456544266885468,-2.7821145183805545,-6.9997919814743215,-8.178375906106616,-11.974146294992108,2.1560141762526426
4.943910468715824,13.610356132500137,9.193343939167617,-10.23639930387269,6.407492613035519,2.258105642143258,-4.999456265645508,-2.4749327302846353,3.3096524414212602,0.15287800172274757,9.921512690656236,4.127168102736885,3.7734356062735106,-1.1405436294119369,0.15466770095781435,-1.5963504185909732,-12.38275980717348,16.45045750873493
7.967500081590028,13.58540934983276,6.719841261614086,-3.920887103405015,7.197240824783934,4.576435891924582,-2.228788564046784,-0.473736314744194,-1.3460635042639915,5.666259816559666,10.106726897571656,9.92494037978965,-0.10615738448655154,0.6937159668146737,0.2751167580514444,8.208476497517196,-9.376560866426416,21.758540109679558
7.864367482038368,15.901900684528245,16.843182033450688,-6.687822038891939,12.087779236792194,7.869071828438855,-6.981382036211816,5.2388896813298516,-1.4135709631800975,9.614834092779223,12.243901121494282,13.476463910055939,5.8765712507053145,-0.1113691826819263,-0.1930045698810634,12.642161212185492,-3.932042870298055,21.693585682522304
10.39635637168071,16.751191405763905,2.746398811587659,7.342120548466548,13.266490648966384,8.718032889304684,1.0556072891406654,2.7486931100792376,3.9861198790741312,10.338448219620915,10.47355560793493,12.43794343089167,8.733201074377154,1.717761013038249,0.31285795481838896,15.025003895235463,-0.6390342661820938,16.93918562885475
12.829087617955548,12.422300377239894,5.738716057573347,5.160648214872827,14.639686991582899,13.568770859810293,14.557883911657097,-6.479467906853563,12.021005331895001,9.106682054859107,4.112070796020346,10.910994084888824,15.592806352053167,3.3490752698373996,-0.8440233003075868,18.189015534591633,0.7955247458479384,8.374246729091134
13.111786786826173,10.044255471498719,12.441023536881872,-0.24373571533901917,15.230793493580329,14.120419322986848,12.333754184265263,0.30865192122416474,17.51529648209976,8.36100856758302,-0.29750012132163617,9.774525151527087,19.424089220040884,6.735772571055012,-1.7104612737949143,17.544218404733144,7.500736919867279,1.1746162285097208
17.982876536240784,8.83580746546727,-2.1470602899563636,13.101984299615044,14.551524384901793,13.595725724157997,19.188320984346866,1.1400526686066392,27.305106916072404,5.85532939711876,-3.438776718866598,8.051948417061476,20.52008247468168,9.241139058866889,2.596464158869445,16.11793806957247,6.3905538494246805,0.6137990147181305
15.528151601740262,7.918049256570527,-2.6734337936370203,9.943388167637593,10.258097130934091,11.018155178371853,11.683764447757628,12.22591051938224,28.011398398220003,0.2224660101153919,-3.5539350452950504,6.036225869289144,18.19724162236131,7.056568884710089,2.799301612366081,17.13281515698521,8.207416674407373,-3.1716498385508345
11.41180035567288,7.974597452460362,-7.888383626375466,14.792592813214927,2.0575420389009995,9.024509654116814,11.793114732857617,19.308186398258755,26.47028521669226,-0.4319591964784486,-5.916508396432209,6.168789371208047,13.236888348590078,3.893103028504475,5.05052340508859,20.002838041927617,5.236454506196981,-0.5136273157920721
11.981615734140806,3.927261869982589,4.083423205563914,6.653208273693474,-3.5070684718174903,5.5640200368552835,17.3679410156571,20.336058360747504,23.756075239761266,1.5482980880743087,-2.518577346578652,3.859713102139655,5.834397944666592,2.289890374658196,9.936111381115701,21.70055124097815,3.825511800565998,9.173799686129705
7.276548426958396,0.5612839685087017,5.6048451861630575,4.080229328460023,-9.951408908383653,1.6133075776974106,18.54485181026438,14.625912389588283,15.278927594885282,-1.6493511922817343,-1.1727762908724517,5.066106798373747,-5.377378120604958,-1.659330305720804,13.647449744499426,18.22192155096863,-4.423885075251301,16.32015922308038
4.230338501749492,-3.0022438196590553,4.488500202577714,0.7259269777474122,-14.345742615127602,0.29746421168294246,12.00352500943022,19.2678426932936,5.531171374014489,-3.0911772791482317,-0.2189387311198927,4.221466498682764,-15.32017753396216,-2.87630746226196,14.719709082843266,20.69986521263551,-9.550554026445003,20.33949137819336
3.33131548990102,-3.833577282511598,8.937636827632375,-7.999588527348401,-18.25258866393222,-1.8991440739870054,16.29897306996797,9.261456960055545,-0.7995487701655515,1.6174483682179694,-2.0985231375228497,1.7164100471563186,-22.822047615984257,-3.8024348978002482,14.910765984605145,17.122413821258768,-11.554401961598717,23.282595162035328
2.235734752532008,-3.6905438069214886,-2.2394764293595277,2.806430487515934,-15.812477554071524,-4.09755262294992,7.7980654686980895,9.216494310846358,-5.1780257812309705,5.542856432728664,1.0987326090525984,-2.3514182567719386,-23.58598805574398,-4.340004583207569,11.193268306417469,13.8372539350318,-10.240019909681319,23.58693315607509
4.849947295418298,-1.4012386346655719,-8.827689527720288,5.213894155934854,-12.201264098089844,-4.05158807262452,13.74735504502222,0.968603093989842,-7.311213294177275,11.126520621191908,2.048483317651354,-6.028877355688321,-23.471403597232484,-2.34049540773385,12.649424178778727,11.625580794459616,-6.2909182546137465,23.791593000179464
7.951289352855893,1.1788530016465693,22.0836534987217,-17.867278385864907,-6.637680640557596,-1.3705737977912573,11.4902901707557,1.0219287836899884,-4.855252461216484,14.36450373459202,5.535943742994808,-1.698677549001764,-18.864898303178858,3.9539832671844106,11.85728410999819,7.557595442067001,3.2227292160796672,21.162144360577173
14.176561809910698,5.905239960159795,4.3604230896990455,1.8256966994877502,-0.2936140153418325,3.261931990929991,16.359180870904943,-1.756524258530487,3.2641648365957483,19.456118663016696,3.748480347425994,-0.20084228777287905,-9.66875502998398,5.461313362153035,12.332565932655267,9.445850323111808,6.777403288807989,19.507225512952132
16.49444950540527,6.918469605364607,6.753665244108236,4.42864797900727,3.6082367058305733,5.744350463650333,9.994417560225283,10.309280987304012,7.183679667787523,20.053642255365563,4.889329179200316,2.4685812315391824,-6.820581459399603,9.21290430710718,15.247202114862091,12.016760754413667,9.06076962985097,20.29168902103407
15.97922992422405,8.12486330518217,18.423367444190273,-4.687225804427481,8.192925855511842,6.076728141720698,23.158234682277868,4.113355957804055,12.469855839678036,17.524312704824432,4.954508990769503,2.8915573339031733,-0.16391363752080945,11.107183492087767,17.96447363107264,12.633501151647636,11.34247292000532,18.73029216697891
16.73257069983945,10.1103792655654,-0.6701474332808832,15.299033496368864,12.093252005047212,2.989561170396346,22.549389892880164,12.273370463859942,17.26726865809053,19.58312117019585,3.455717420500658,1.1657287797108609,6.297339787889729,12.413754301481042,17.359373102652704,13.835106340132638,14.892157663213219,18.14338479218702
20.61001163982569,6.5272761600098805,0.2551415152338006,16.43749794723304,6.910656711636877,2.049387731561081,23.793169408682928,22.58209082662272,20.208781832400877,16.56198090948741,2.4437536116305747,4.61541090878756,2.602147690569878,14.695193579427137,19.486721050778822,18.55124235769993,10.530089897406778,23.902129453415302
18.138794889554234,4.113949874368941,-1.262050209927398,16.013609703659757,0.36010892339588096,3.54922824868727,17.221505513730172,29.375351165678904,18.07176166863765,11.488311234065687,0.7467115653306913,6.697519789624456,-2.2649198475844,13.459298475763525,17.11988564730319,22.191929575981852,7.240874963288352,21.846140901097407
13.51824640817331,1.9914926154603614,19.19270786358493,-2.281452035626827,0.5472088108317008,1.5320079684531533,13.86977218156006,27.18430026826798,12.711776579200585,4.655114561916808,2.7591767752147636,12.294926935261499,-5.374073060499696,11.342881322432538,14.848821917103693,22.315659050048133,6.294156278146142,21.350549534015194
12.998504896416998,0.06225858245861193,5.466210304072551,12.724989991781891,-0.8289435419065464,1.4666079095375424,4.851165198613675,29.87631863919789,8.132864842314959,4.460985571522063,0.8638330249153447,17.794280335978502,-8.678409664474183,10.396808123030917,12.282940424729665,21.3638093221278,3.5884010120579752,21.145792408780338
5.934920217672902,-3.2362640359053687,0.918488598065661,17.184631500096394,-0.44797672137943767,1.302263259885866,-5.244350683373032,27.099666387142875,-0.743105546834089,-2.1801840593355584,3.752207051358904,19.972858834740055,-8.173905751353951,3.7850906042987713,9.812913936755592,17.28550345254741,3.615956842405997,14.591131270145226
4.144122685082185,-6.927485694829111,6.623772476498308,7.972445429600736,0.225251667799516,2.308572516776069,-14.170595622473218,26.276311478624137,-5.322183453993661,-1.3033088021866654,0.48662019708475834,17.95172695544629,-4.837082733711689,2.73842246016408,3.8254481523328105,12.9127521619128,2.568262825847329,9.694489346827638
1.1807454371935293,-7.691030953015613,13.792859650166427,-2.5090150257391763,1.3860658481019108,-1.3738807230183996,-20.755624036526804,23.01163447632852,-3.7488023236232104,-0.3303483836796235,0.0515731903268124,8.80113662557866,-5.308611576887532,3.4482054122700703,-0.2105811182496562,4.339182847723821,5.914242540311513,-4.774784405314751
-2.7598518114332737,-6.99175348280877,0.35509491558087136,4.392898254172856,2.936817062270145,-3.006664269871311,-14.647661861291596,8.418759055802692,-1.2964111678746861,-2.3863221258598255,-4.584302201870877,3.263423371113398,0.9585983409599086,0.933948278576862,-4.052970554959316,-4.138326077696053,12.286776879971956,-18.95326855165145
-5.919785241369041,-5.513244863464913,-3.9039171603240037,3.6778230918998815,-0.005372476998622089,-1.4178370216999023,-17.91730382484279,4.568311687395179,2.3280316226317788,-3.0766035185558276,-9.514706870985915,-1.3958454063529366,3.5152227808309595,3.3012970033586715,-10.04546299584448,-11.543258424519795,11.822522391819405,-23.465829673978263
-9.470902958459808,-2.6695458630720177,3.847891481114153,-1.626831737387111,2.9112271377391146,-4.517627623675069,-20.40808945431937,5.991435308740414,3.8042306764061884,-0.6433251910952165,-10.052079317470977,-3.028215245650763,1.6777107322142477,5.96039123089471,-7.738637035292703,-15.9225195593596,14.092024875851326,-23.87896783657179
-8.334957405080313,-3.148215011839633,-5.686807822982405,7.424553705667009,3.1904021968832392,-2.051924984588025,-16.651128830848062,0.8715189532956558,5.769012145172148,-1.434212357745288,-8.344899358606932,-5.735326963062436,5.895492720521215,3.9307395339286346,-7.777142850371735,-16.69022206936361,12.845275117567319,-23.610711990457272
-12.76596591633485,-2.1640098262431238,1.4768716728653568,-3.4458695044053265,1.5157667907120638,-1.2473534431898248,-23.44349580088981,2.3923323549571984,4.609106157311857,-5.6445527555300465,-11.229217824077248,-4.634309151830866,6.012215207839544,3.560148202046534,-10.942198576448332,-19.412914931876234,4.176048478986451,-20.805572221951252
-13.87702843829361,-5.088092562903173,15.670806684588532,-15.48779789709872,-0.06185640419810967,-4.642965772921954,-25.84349766991045,8.796010252329623,4.523861369409023,-11.223506248353806,-5.618906021550669,-6.4635613132210725,4.567029926902486,4.360381548461481,-7.956274828324425,-22.72344624176832,5.955795114074936,-22.885542971291205
-14.597831141437378,-7.721166697236388,12.773528214402267,-6.435249866617415,-2.4213766931093215,-2.570597208054393,-23.46044402306966,8.265939417550475,1.5093755559904827,-10.553741661606997,-3.623531663406773,-3.3128217218763716,5.2709804923068395,4.378337591194263,-10.831229288132699,-19.004567302078897,6.075037625188318,-21.06143279932411
-14.537696691135766,-8.012405727647007,19.347934238743118,-8.905894286025674,-0.6798964925187225,-0.987321400671687,-25.962390678533215,11.837417105974076,-1.5045546954827085,-9.397038369737844,-0.7508460716773421,-0.4556233291793639,7.147537940910505,7.42272079780916,-8.531692687616324,-21.830757516880173,8.928455300936754,-16.11450773195588
-11.157477124204437,-8.989185368344383,0.33488856599911543,11.964097874065944,0.7679966867158639,-0.7720095292404979,-20.26313900569913,12.088427001793749,-1.685791300427332,-6.679134089986604,-0.8095078991955942,1.3267572371126621,8.53656802744716,9.391958441424347,-7.991319673817101,-18.115931641511352,16.078651501942623,-17.810544771775646
-7.48451531776394,-7.819416643907882,11.985241914100971,0.021541285972456525,3.2895222188837394,-1.5339821825480595,-25.405885893414727,13.706511907831544,-2.452292331371212,0.1390994054647472,-0.08852921369179734,-0.8954266220144271,12.172533662988867,7.844659110978995,-9.991327004180052,-19.96969971906187,23.619394612060297,-24.294048685607542
-8.792281825232578,-2.3546144703910667,4.981827813311176,9.075865455915066,4.34559008775337,-4.347426102497705,-19.710549621782015,9.562627440200007,-3.803995769758265,4.319304867948699,1.216768918940385,1.1787189564562852,14.051512491966173,6.3942109956380815,-7.695627455851991,-22.89985422810479,23.445168597596286,-23.064829366960126
-7.561082898100195,3.010637942906864,-3.2922837640733693,11.685259517756347,9.112071961431788,-2.2785934098947354,-17.14212267118513,2.977106811184008,-0.4673224692132374,6.447455388573314,0.07899158898461534,-2.2165937098717317,17.2985959467798,7.189135873941157,-9.014452330794247,-22.80481679841659,27.8609234632036,-21.837847685311235
-5.744025242801596,5.248966050021803,9.624179594916415,-7.384870467407591,10.362306722782357,0.8639122691981448,-17.70053975700145,0.7859613129851954,-0.938435509009182,10.72286026542978,-2.9159190951415654,-5.124255726567867,18.98409428652235,3.979389545457406,-6.330452027956593,-22.321391256084386,23.487621851738375,-16.218503470212767
-2.852771730767826,6.508855838584349,-12.226675047529973,13.096891488155196,12.295589063528455,0.09959431688025355,-23.729520462516398,3.184475378707849,0.1539002383706345,7.965718212626166,-1.0295827504842556,-2.5637351520898353,19.49867961090168,2.819802723253656,-7.944488385058349,-22.523855652521966,19.993451324096654,-14.605359221508245
-1.8170058152672501,7.1809542851261625,5.570342464682743,-6.265185040658057,10.224359537327334,0.8973341793851435,-15.502134238153019,3.629548878780713,2.321454572005385,2.86362685358785,-0.12146681352926625,-0.3945087182005591,20.600231021680706,4.0033990925235035,-6.239211412141438,-19.115310344747435,21.08947549385128,-15.826517596761501
-0.29289266872722003,2.1870752358948224,-9.446818844761857,13.53402340347204,8.44557100928092,1.987629081968267,-9.71778678273693,3.5860159191840477,1.7556331788556983,3.9128354829471137,-0.2892313816394262,0.6021498456930767,19.749685662843085,6.7489668226179305,-6.878723613553872,-15.318499644235377,18.7678273200518,-9.139621394370945
-4.042189592224647,0.5117474418986212,2.0000815591692773,7.552130681233089,4.322477019686924,1.1243986765060563,-4.423254647226913,7.936731092821263,0.5073051796214894,2.2265154540783954,0.5179344140409377,2.7700150423130654,14.993925699975104,8.517454372377259,-4.198829494976633,-10.352198435612669,19.278667949905397,-5.872961345047548
-4.373308054404043,-3.2161878131735744,1.531544163789103,15.24287422167236,-3.219144815413087,4.069497113892448,-5.7709060781127715,10.040935276990005,-1.1305006290413866,4.054787644110546,2.007056374313901,4.253579128477202,11.997135586918205,7.258098500698291,-1.4221877956233318,-12.712664794660583,21.254852897889997,-3.58508547018089
-6.462058343250063,1.45266499891566,8.386136256162498,15.02390322044996,-0.5071978754781683,3.98692985470327,-11.22156976127176,19.176080652294196,-1.8881790773503964,9.00704640257678,1.7366907243375271,9.545088082689443,11.05232260787771,11.467171489572188,1.2559327840297154,-12.341184011255843,22.25500060962778,1.1420369684831435
-5.620818724563386,1.5298441242798173,-3.5107661565956914,29.161191544762282,-0.23717512311323752,2.3416100393704737,-13.060213516476772,23.134916271153287,-2.5469385933507542,13.079349496209938,5.859275541205015,5.167764343792987,10.98762646695836,7.082007227398487,4.421525533552649,-10.31202155699928,23.939352668221797,3.1325569423532773
-7.611345404051623,2.6795165358944484,15.646277192097493,7.36101148669348,-0.944196935454519,-2.819570347399602,-13.630551810329905,20.550200088161215,-3.7903309466796706,14.5138825190251,3.241829629830108,4.110078608431308,9.654607975727949,0.645722342565807,3.2894080780085178,-10.433857401348401,22.69463072450891,1.4099096206421615
-11.261694797053604,0.3117868617210704,6.969641993775588,13.784506131696357,-3.702484657051386,-3.3909723558214626,-10.198096088181583,10.738294033686136,-4.837042913836776,7.548863527059826,5.603283733316701,1.489135843571595,10.276002151653364,-2.470459853586262,1.3753059717897438,-15.734107337248236,19.790441459913016,-3.4399446070033415
-13.153795071129892,-1.8623319794323745,8.838813346896453,4.290384108205428,-3.140848496457317,-4.4507522422134596,-15.555937999432903,3.757911300296163,-3.2455808257175764,3.219641693933353,0.9317385008401153,-2.792728964545474,11.289313235428237,-1.582888016612543,-8.3520911732935,-20.743961483352578,12.980710927806648,-9.073204643695233
-19.049401760101837,-4.233451765825039,-1.0121800169630815,4.074348909728634,-4.1421610797065345,-6.7801260025427394,-21.40309690423305,0.9762261108983186,-5.363648791047122,0.5496639781818544,-6.378204300318073,-9.028495520008317,13.671145195451073,-5.090081079566863,-11.146417726830512,-28.783804264660326,13.203158115190574,-20.76337173227062
-17.229534726356874,-7.582814837798505,-17.01685313496803,13.038748712122587,-6.99938093951767,-8.523550973896906,-17.094806041904295,-3.1732869004621413,-3.2809220530567487,-4.855643734505978,-11.834284372442806,-8.819603827026773,12.733951552587456,-5.8629777425230465,-13.746010946448438,-28.915987719419366,10.20377041580425,-24.447713171672063
-13.651264634077442,-14.840133411042318,-6.459868960815195,-1.4340963831340625,-7.024921545852536,-13.099002805937179,-18.549203677228494,4.493133027525252,-2.466187479134085,-9.675894244598393,-15.43649665858041,-8.806785006788772,11.21217255773645,-6.831264394070013,-7.947573932441393,-30.613329232740146,6.03340850309637,-24.618465487934863
-11.341929806616923,-20.927184594052495,-14.068478020739157,4.894774621589303,-11.054809381560721,-8.982823273867364,-12.777736770576611,-2.8804267200786775,-0.0873252812143539,-12.641513041828887,-15.134022739140546,-13.579956737669283,6.859702195817684,-3.6979551127792574,-12.794319396240628,-26.063223832903095,7.332844867320192,-24.69362866717913
-8.445981453819883,-16.46880450732568,-9.764101505987417,-7.9166498526546345,-12.057671499850063,-6.3313728541272765,-9.15547462367128,-3.9069549887545154,2.0002115138307044,-10.725086430006902,-15.223796471993925,-18.64686593165245,4.852421187597117,-5.447517103556786,-3.774108090586915,-27.08226995987824,9.316894443024992,-23.696602996572167
-7.014180317646139,-11.914350094521014,-7.511800993012791,-9.203835824332694,-11.400700271306269,-8.95325933026978,-7.096396969990184,0.9252257859109889,6.628540085203591,-8.809477792776342,-15.315179347866314,-18.14805017410969,3.725482416083933,-5.927468325626256,-2.566912030229854,-21.756232845904506,12.083257224367383,-23.09223088495385
-6.5581858586251265,-5.896591317803551,-7.116265294241874,-11.662286476599093,-9.083879367523231,-2.0044625631916606,-14.315391460008607,1.6549926357902747,4.813189702431655,-1.5234879219926767,-14.431585570488489,-20.091445157257443,7.971159412538715,-7.48155061568939,-1.5553813995343098,-22.682968152269417,13.483503248932807,-22.196883092500542
-3.4646098526444957,-3.2007353469972766,-6.429027951090766,-7.772353311031308,-5.400165343326908,-2.8680171329051687,-7.276868986637146,-1.424714372062283,6.515289837355441,3.4179450928191595,-9.154984991560566,-21.644976400416407,14.659735966906595,-11.28161342495372,-6.989565730108589,-13.358322646796664,14.787221541864412,-20.033955814733353
-0.27250174336257693,-2.654866788484974,-3.887568455067928,-3.6864719616605672,-2.888642441649455,-10.079014276704225,0.9331068344322819,-1.7708594215609565,9.68406650931811,8.065657059261811,-7.981590911910866,-20.269541605284864,17.443473484417716,-13.323646485657598,-1.9746304253192146,-15.950605878943783,13.943636064872962,-17.482340991933654
-2.9389319587541243,0.42860880356268805,-8.96469042168367,4.111037710502815,-3.6001058735764264,-5.2777567238577525,-1.013688546464806,-4.754650553928442,10.999193670925987,9.685254403235405,-7.88400245171168,-20.16442148886302,17.982566594769622,-9.798955532749543,-4.479554440686224,-18.350258319181428,10.952781445302719,-12.588854813536997
-8.241143474479381,1.264485480017166,-1.6405594132563728,-2.0558742555843956,-2.2610200139009944,0.30515696525074,1.7267943346052803,-2.2705271723084497,8.800525384286988,8.2767601620675,-8.373919136346466,-19.376458073353298,18.327839437060966,-4.613808310816278,-0.5392360676372165,-15.674390944980647,15.873437691920797,-14.240321372895654
-8.171150162116271,-1.2214481936276556,-6.427269945879392,2.715516399759825,-2.972991971082965,0.3220146339253376,7.396788686596256,-2.033482024592171,9.435848904002322,6.183983027747764,-8.670066440222882,-20.054117393434264,16.233174152363034,-1.5768153814746535,8.674476280086822,-20.618505726148094,15.717156315216485,-12.670935184402015
-3.3148472310768025,0.9787665610668816,1.1872695807105753,-1.496969257411772,-5.73600345503324,0.14403230374336684,11.211137255082502,-3.6529148111775136,12.123934931693446,6.239020289792057,-4.9637790725332795,-16.044956495708185,9.647766953099282,2.437111665978212,4.606656003370998,-14.725283329852303,9.019100366907038,-8.271294566770006
-5.977058957181819,1.8103743132670433,-4.480927081831674,-0.9235902730392045,-8.792196548109718,5.142425322329234,10.33783698234486,-8.88669484197766,11.103007877262538,2.2894570489672845,-6.923159072110832,-16.040507852950775,4.528747360772806,0.103682448318684,5.6170017952914595,-12.44806068981472,5.642728993002434,-8.561011743942355
-4.731779057737764,2.152319543488468,2.4474412095992535,-16.267788411980977,-8.625873713687014,3.598303803511252,12.589577794138805,-13.242595327681435,12.134903922809666,-2.149005407560848,-8.884042479493278,-17.501662752433983,0.09485947468222733,0.30979082431226423,4.185910693023138,-10.271148435754048,4.2208594978238665,-12.075185769945156
-5.047790636027683,-3.952494725060003,-2.051428999841501,-14.130617842494983,-12.1707153233552,6.254057348388637,17.478140929190808,-20.43163886471948,8.969555631997103,-6.490398074517142,-11.627675402473223,-16.033814358479617,-4.044522966109998,-2.7063310111973133,5.879916355562974,-7.999218288768443,-7.356043917072412,-7.387825177526218
-7.803963398635908,-4.394483199977805,-18.954113864715776,1.483952362019184,-10.63750531123917,5.687735113095549,23.929360329126357,-23.324838054623587,8.443031151002398,-10.930013935488136,-12.028993577633106,-15.152631739241437,-7.88939654985149,-0.839052428732646,7.574012976241049,-3.1908119213148645,-4.380550665767515,-7.6826880394510875
-4.6016821778160235,-11.966783989757385,-14.27571792845708,-2.432396118553963,-13.499024755909446,8.149469060575282,18.271220523442736,-15.574466530007758,5.867783681125189,-12.04980964717797,-9.111402277174976,-17.98315197140789,-10.267866237975287,0.7358038551420906,8.0963489225144,-1.217088241597068,-5.01697969145042,-3.682251275740187
-6.183249362167935,-12.118367639114805,-20.926897075731485,6.9333348284948,-10.20821776186924,8.951723413302034,20.81659860155759,-14.368312360212004,3.685279834976919,-8.677869939566415,-9.710925257439948,-17.591663886542346,-4.734520247030797,3.4831407439002406,8.325884442094056,-1.8827130462013706,-1.452692629159543,-4.468646087688965
-9.61888426155657,-9.439121446051043,-8.926721877986797,-0.009153049850844752,-10.530838155315735,11.610211689651834,19.163027628036534,-9.7453108765946,0.23535951188077142,-5.5994017349423215,-6.112582289886308,-16.51725612255089,-4.375496013083454,7.6959675276425275,10.508787449506604,-3.3321686783034785,0.6481792166283888,-0.5690322428206489
-10.806913897845119,-5.003253762550933,-15.971076152484443,18.732965101931157,-10.755871417031416,15.53902141730029,22.881031054833606,-8.834500916483144,-1.1615942765975085,0.21300721583560955,1.293015101793067,-13.392706752035053,-3.1360150673890868,13.667292742797557,12.594284567335446,-4.295882104139997,5.582592543087419,0.4969844560522301
-9.259002326240282,-1.5451542369927878,-1.7273086718534483,12.963607039549952,-8.832484427281958,18.19908438931416,29.138598131354136,-12.905455854644684,0.27569859602100877,6.024962456479374,2.44713977285115,-8.315659020943619,-1.7973418853114076,15.635344262524175,16.3402535290526,-4.578513667538729,5.733258295397869,9.66711178205247
-5.365733967802669,2.986017018161677,10.0737549342853,5.437021999774375,-4.858314192190319,17.05133144263147,23.67776124946717,-6.723589894793326,2.3011266641048174,7.637203392871848,6.529640010986016,-3.336910083600408,2.472594335585921,9.693846228741045,21.063127783827554,-4.082379743054142,6.764338660309569,13.171649883582147
-3.228688131841456,8.101998897993406,-5.6659186530504435,20.37232492711437,-4.6928042566525425,14.14660622348951,31.498963024317025,-12.750203815592368,5.207678051604843,9.932639229561591,7.974045940247741,-3.534646181255523,1.3728809410147527,8.635995536446742,22.270688111221727,-4.0770034131358095,16.586122469046128,5.346491912381413
2.8163290631436713,8.626959003863169,18.73049104941114,-5.610362521945305,-6.38277885458728,16.711611610689136,31.703506847580183,-13.699897011713693,8.409419561202647,11.251110549955655,9.61245390678247,-4.709567423526058,1.3489229829724234,10.70398497514837,18.791077631569504,-2.5115429977357877,14.983468054139616,7.969356513896049
4.859084734984878,5.83047600163527,8.945451031507874,2.978387416293901,-7.8774044108954335,14.687629469662635,26.24460590556005,-11.916473471745734,10.832127629498656,2.803442879461467,6.854972550378942,2.122856125024235,-0.4313608281099395,5.6437831057848875,16.483795915652962,-0.5578607007598642,11.819816414278604,1.704054194520829
5.438723250254265,3.5212299997488516,-2.305687856973475,3.4621365822892862,-8.297740195559651,12.469286187073951,28.696743029860194,-20.486087401567474,12.866443125594568,-2.421862227616404,0.2875712579905958,-0.6157501807090515,-1.1359038555858998,2.1469592301857765,9.587070606891242,1.7840756383027703,5.142020739472358,-1.7304427693868778
2.699789661662054,-2.402375660590762,2.555476180901132,-7.381826506597493,-8.034396097485217,14.451207123075969,20.50500308818712,-20.951441723107134,13.438139144487351,-8.331092275747833,-7.355309803419658,-2.280673390004674,-0.4717416815611699,1.2877780655056954,3.4721108663713722,1.6822251403420232,-1.9248644974564968,-6.924004351304361
1.1345810625650055,-2.6628270689533586,0.677041195583254,-14.123585289316082,-3.864645652840564,10.76998654702593,13.876657612867758,-23.371298241982736,17.13713603704462,-10.529626864369396,-11.679048409453515,-9.903250863403086,4.97913684788197,0.5271670834039073,-2.349339415463282,-5.746264250764742,2.1427796734896276,-21.10325920717863
-0.33109776991204853,-4.096137280878413,-3.7417000698763063,-14.028729729711575,0.6958534633343776,4.160066174630815,5.2960804792641865,-26.085488696513604,18.592262990354417,-12.728438023673126,-12.09767374799549,-15.963816069124693,10.138518572927756,-4.431786433084618,-6.217066929507517,-15.423153789632138,-5.213980190030508,-21.22093630141589
-1.3065771441971474,-3.870202934545082,-10.407763800487126,-7.390240028110574,2.0337857283465315,1.9458004781494047,1.7946799919806207,-24.894742321583596,15.752710692318235,-9.458670203920073,-12.615128363470166,-16.653696032328725,9.146927518163231,-2.6513886108778966,-6.8614901928259435,-18.754524837578515,-4.463592583086676,-23.195202720210645
-1.4988463555164393,0.2611330208183049,-0.6685103545487343,-9.149757685341939,3.957823723535755,0.9045069684963183,-0.24083073342960404,-20.287358614775037,15.063891568206532,-6.091476999850691,-8.739131003435846,-11.289264939569765,10.402916902162746,0.10657998214132025,-5.649787573276383,-20.525567967212137,-7.227326106507519,-13.353930152383098
-0.4195805244907933,3.610328201444818,-0.11025569027062598,-5.732864351266736,2.366362893318345,1.622154000579636,2.900590408612893,-20.759570502190677,15.451570410719444,-5.654226230101265,-2.6181263677174442,-9.831590177545104,7.2657471256727,-1.1384001840043227,1.0314064389860658,-21.029216580345942,-6.0831909850620285,-8.884836097818502
3.4937790049534625,-2.1234960611707447,-5.412624000316725,5.204217946695117,2.630599251075834,1.1690302685122331,-3.039040187937786,-7.170469193950213,12.423489482209524,-6.096083213469907,1.939259608823681,-7.104788987463204,5.692526262696401,-2.089364215709585,3.611661562266907,-13.624703471565155,-8.941463546951471,2.7123149521509458
2.330988671313368,1.0287137471689691,-0.9503635347325177,2.372093812399286,-0.034676427032107604,0.6193908023221768,5.866468733740312,-9.110356983474185,6.1749609659416365,-2.7294542741639023,5.030710912744244,-3.694784908433787,-2.324695223601042,-0.10952969806112023,8.634073760857769,-8.859022713650718,-9.942679614395598,13.039002053381733
7.518035977316563,1.6410314292507802,-2.3486987027694757,4.032752356555633,2.671463513255179,-0.6126919538007565,16.531023381329476,-9.00084644546719,1.3935515085323313,1.7112660208236719,8.316435656530368,-0.5781321255936014,-5.067004097834653,1.1877895116666468,14.926776647055947,-1.4586135655823576,-10.161075366627951,23.950766842426404
12.121251737664075,3.6197960452134383,-9.607614806682557,14.776098826893275,1.1785799430027977,0.10955887194574387,14.501320059598502,5.072302131931162,-1.3347988872086258,2.9291592660126753,14.433219605862035,4.881951818361653,-9.468116191067338,2.8768501724144313,20.438983287763676,7.014043737356484,-7.155209100424312,30.36945120194681
17.117242118741157,4.035304886401649,-10.812852168156645,16.144811561517095,3.9829152842698097,4.446341759638283,19.601920318144092,6.8391532620586695,-6.3070387568788,2.682086943755329,19.67009563844533,10.43936257312119,-12.598316244540197,9.156955809980952,22.533959423821848,15.777731634837465,0.3444672858927831,39.13114104015145
26.900632536355584,4.2547958369866805,-16.218457439007427,11.068613760384576,8.057098211538198,6.440550474956258,19.527987656616453,4.69827038358582,-2.292537458438126,4.19277663325072,11.722215692105085,12.383129827741872,-13.383386691724883,10.65298314654336,21.11407115649215,20.34023911537544,3.15812302016648,37.24740068312085
30.24080827559159,8.086950297785968,-15.375035684217101,5.504618349853558,13.596462376824253,8.143012498550183,19.553077258465247,-0.0807969385262517,2.212470664474294,4.824491496122287,6.800791991630582,14.619587086727421,-8.795955760182654,13.90801961684016,15.788710489461467,20.310980849183878,8.31711155408411,30.968368874258026
32.11833772706939,5.668366050711209,1.3855467810990332,-17.93026184158612,18.25723970677128,11.897527563059903,9.618477571088738,-2.7128193567601615,6.231395807591146,1.8428369412813181,0.12062277546732503,13.047133192894808,-7.332265580350157,14.527484825911593,8.218081102562206,21.647125136025565,13.96593138705624,13.751019960007781
31.556665331722442,6.081242453634768,8.379322373520951,-28.47384828672888,20.96521223528087,7.547703704267343,4.079910553198202,-9.057260079392274,9.764224142795438,1.3026149750131804,-2.947088620421214,9.423631374703545,-5.183683563672346,7.628508742180182,2.308513846490868,18.782227388344864,15.514663735347487,-0.04891580384965866
31.583201037496742,6.200561325884681,-1.5227052129422036,-21.340921510355816,22.794631734849492,3.199145415932792,-0.38295431081610687,-13.449967877165811,12.322651742581046,3.301505438202171,-6.0156508487598845,5.311629308002402,-1.9595985390386037,0.14480695576479263,-4.576729852102671,18.55237639816621,9.252308959375224,-1.4468843855334077
31.319043317365402,4.366170558831383,-4.199054800394579,-17.52790559688467,20.034520140529775,1.9769115096800416,0.2338814812042216,-20.773826373746797,13.12540008814228,4.421509508612983,-9.963955752933531,6.3752996350388695,-2.542917791084946,-6.165766102534391,-6.675823729901484,16.855994381177318,0.8430100003852452,-3.6266393137481407
25.100059484201502,5.55864433570651,-4.434935664089499,-15.765260034200816,13.954443541937374,-2.8573718775042796,-0.026674537625682504,-19.79819100881677,11.879478020261914,-1.6851038589153484,-7.858275898956032,8.122409859171055,-2.6367214964246912,-10.131303370129817,-12.191999158689534,16.232230143223816,-10.982790175731093,-6.295166558310771
16.539600253609176,2.6489970186277136,-7.308529683274382,-4.334066267109954,5.530994198258315,-4.46765363459831,-4.484957307112236,-11.011345001594792,10.635678834156788,-7.986955329408191,-4.874443584211487,9.771721401260233,-2.6316618009208934,-11.849449328856789,-13.703249863858733,13.75139924857838,-17.43590174576905,-4.081250213444058
12.766693064751019,-0.5540901838483725,9.153175885624908,-12.433999010903362,0.4283352716956217,-5.393026593591559,4.339795444087539,-7.597076779743916,9.29632426790623,-11.847263892941301,-1.3054040752637532,12.788123455868789,-2.7230757909021452,-9.952983277327725,-10.330638918066427,14.784725328732808,-20.37182889023378,0.5737057718620515
7.042964329860479,-0.046620636341917265,-1.2419082391575071,6.8106464315018105,0.697292904845235,-1.7271736117533596,7.013718794544607,-1.3521287018768255,4.638687138401137,-8.871409236305816,0.4074270787190577,16.39037690499532,0.31171995270305075,-2.391081250083949,-5.492170702372621,12.203241385501812,-22.524995732892954,11.087761180452775
7.571672773424401,1.8276491302586295,-8.219860232259292,19.414965760961444,0.47841564538457293,1.0610785404006542,11.642429139947907,5.08674866301622,3.4011285595182574,-3.8445986403055437,4.561018374170186,16.476879138950245,0.22260767681437343,3.8049099684767906,1.3981170188809378,12.843037324565671,-20.965677708194473,20.331939150488335
6.930836769822047,-0.790716120705544,-6.897770139306238,21.7656116941706,1.5295551196670238,4.729575016542638,13.831350755129929,6.93433537281884,-0.37349772875221277,-4.579429354541698,7.346745827192949,18.614143460030977,-1.3302537786743258,9.025630925995468,5.359694575865555,13.969744540959905,-18.33064163811082,23.42339010119563
7.85487774320176,-2.1398806135578914,-11.924275482253726,20.21032626974646,5.999193254269841,7.129850532211233,7.721040450230589,11.417314396982722,-2.5835918654008267,-6.876596621258924,7.202113403697645,16.259123000049115,0.8289727330716672,12.294512887554049,7.759784700589579,11.384128312466993,-11.983136542070973,21.924674528679418
11.808664576206294,-0.5596337260256403,-10.017899566670028,14.944413723407706,13.203736843577747,5.820465763724226,9.132072006206279,8.18397631971628,-3.619811105923853,0.10393061042483098,6.177961357598016,13.513464144771076,4.161162570004071,11.463093314499258,8.598401066330792,12.117593982378025,-7.196688525325014,21.30466173583045
17.327332034337278,-2.104726377852217,-3.5224036001493886,0.8896601512395836,15.623550197031975,5.196022392916259,7.029139350725339,1.2383003320910841,-4.263444693272078,-1.4115345132891426,6.813418523878984,11.451422890210628,2.8068276276397928,9.65642671377997,3.285642874331396,13.338115057000808,-2.9947284320590315,10.430404381151666
17.96546823185722,0.9398317960584508,-7.867685467138262,-2.8130289626638127,15.895401917785271,3.498683684434213,4.439649703382656,-1.3141085141623794,-1.0965000284921373,-2.145484880256748,2.46778602378921,8.99878448302784,5.3598250648157,1.7963165011218454,1.4896387132025186,13.873846512286677,-16.467369115971056,15.083580057348234
23.293528773174963,-1.4846776231531398,-21.588853526623467,4.910569781957143,17.046690885737597,1.607371115204856,2.633169702041709,-3.1842309795831127,2.0723417752499778,-1.9025832728680236,-3.6362034277976654,8.597012330727255,4.593457881695585,2.1407977246721783,-2.844379649810568,14.213124766830493,-11.090624156433014,6.357531027570952
24.8152854593728,-1.077317991074395,-20.955050926751703,-1.7211989014218503,17.41724377033297,1.5728982903558126,2.293318314780887,-8.473678070427908,5.5360237904731795,-5.95632599242642,-6.810951193056962,8.292971035092611,4.60932670022701,4.244463614236512,-8.837481541889074,12.79347353245363,-18.603267531883386,6.322939045409259
23.995597727215465,-0.3771619058500455,-8.407694738488102,-11.673022405621492,13.100758537501733,-1.4876214695471468,3.029478170548744,-5.268190725212411,9.196857270565392,-4.833890660398866,-8.52129646046207,7.696048527510463,4.235513963332892,2.540826159233884,-7.0168557874334665,9.61494017814362,-10.489247579643797,3.7491956073529717
20.834457076803712,2.764289469433012,-5.724434173932474,-6.8782309622475974,7.515262990270992,-3.5702212067894727,-8.830421926111358,10.826844781218565,10.222735928515322,0.19519359467699782,-6.032795808989476,6.610947695814447,0.7375780839711901,1.912774650324291,-1.972406406056356,5.263518310335321,-12.139585203692384,6.155977441014002
16.60140382439257,3.0735466249746115,2.915311883348089,-10.677036741397767,1.4420252848770838,-2.1358007618881985,-1.7429206194293378,6.510155103387721,11.641017112364313,-1.7090609926094127,-0.907946620264515,2.889216091789334,-1.3922499176875984,4.997069470032859,-1.5167434440606211,1.9853828986480788,-7.9290504481456665,4.656460050785946
13.835527136227292,-0.3282817433945331,2.862909967908257,-2.366011222369627,-1.2126393881638782,-3.3367995247431868,3.5885513713869255,4.0477216262350595,9.935988852551322,-3.417618117571117,1.1891283803299966,6.296645023024992,-4.4001232288042225,3.395145489581512,3.334653766028633,0.7571580578941892,-4.791351318859761,8.3328422435712
16.247807326671953,-2.7535958567202936,4.763081616982866,-4.211131651286938,-1.7182767013374818,-4.9270918916901785,-1.8205089249369628,7.24821340903264,12.334289913603225,-5.321087594391117,2.1139521777754364,4.91900693862544,-0.4734479144601007,-4.064890515148983,5.062147229438979,-1.7414729087769287,-6.632805860568876,7.2240626142020306
11.435695895759345,-1.6632663278072268,5.88143824069719,-3.4192466656043132,-0.9538019869836942,-7.004338662778009,-3.7120633637643685,3.709115178977939,10.14434678566305,-4.78268943437858,0.5969997694168809,6.275964022310627,-3.6749639177388094,-3.5156406419299238,3.275113413986157,-4.045597688880818,-3.5899907369663913,5.334115711747437
11.997024173190525,-4.576911116378791,-3.6454235432974977,5.771437709438347,-3.997414008522057,-8.396650639474394,-7.945569274818869,6.028293641473319,8.639642218802393,-4.341504031604725,0.15397509334842474,5.094013942375063,-7.852259035022977,-5.504142867465475,4.711943261734623,-5.666881640603612,-10.116259881680822,9.401411924376617
7.189421998228944,-6.806930781665671,0.10867117484523003,4.70828031879997,-0.5950469176364344,-8.713401151549913,-10.517053208569525,8.248645351092811,5.183381486080011,-12.884365059492257,8.792837785364497,4.107588498226395,-5.388054998450535,-3.6826469581392978,0.7787619694670971,-3.2849159395559147,-9.023859396857699,4.679657927273736
1.8957560864556093,-6.5954582088238585,7.085003907842783,-5.241523356641301,1.147709412476983,-6.782702200263238,-10.93822130520806,3.045858950136404,-0.8104180660172648,-13.125832020706094,4.540620887685364,6.539407627843022,-4.6809429374650255,-3.519990061052953,-1.2000941536749172,-4.126327990680741,-17.01227118595136,4.8409618974606765
2.3661000230489204,-8.825352740076282,-11.134798839184445,8.539698918708739,2.1097766402859923,-7.487446255144322,-8.72078062115504,-3.0369773943536185,-5.240167975919725,-14.245712199767768,2.33898282245616,8.092544715701694,-4.461397700128176,-4.430230249733654,-5.521560391540964,-2.722239288980054,-22.850863447364375,3.3422789299561524
2.9362816590047593,-9.29730401951578,0.23528414310598844,-6.585587847250497,0.6309746336669999,-2.8197046558162784,-15.77897210020113,0.156561271249835,-7.4223010397214715,-14.09551524932042,1.6996586566164498,7.106831567744976,-5.9989953495082915,-4.069587082267299,-6.423825296155165,-1.318733123185817,-23.219281309594663,2.2344443853080627
-0.20237547321633187,-9.573808502944868,-14.957918660542553,6.219407966124934,-1.042567666720501,-2.349942525634402,-7.307727259425908,-9.248838486518538,-12.337399275636521,-7.694676604919783,-4.115712344843726,5.633093554797928,-9.879707719284161,-5.563114364480779,-8.692113843403398,4.185859988852843,-20.558976555929185,-6.783427689799616
-4.1201650960984715,-7.115737714378033,-5.639380053275436,-9.393842920621953,-2.1295879406803104,-2.6601460998080118,-7.623821749400438,-15.432602052163201,-12.563511940512758,-9.789495482659197,-5.634306506186492,1.7181881449629421,-10.244095726965657,-7.055321948915337,-14.18191928122204,3.6351791150347936,-23.756811817509874,-12.383018331835043
-5.203778018759021,-6.903609334998651,-5.1103603133679805,-11.920814243249911,-3.9972946549987842,0.3513020246006051,-10.867790341936237,-17.90641968062335,-11.909328587342863,-9.44228574278386,-7.2506997229257895,-0.5362478573429703,-8.752366196662578,-7.081351437338517,-17.229089331961603,0.6426043129885108,-16.601610525311465,-21.595664566587097
-5.015766488502763,-4.640455913564738,-5.362895671947283,-9.369454060137787,-3.6182984598838646,1.11790244084734,-4.637100026342804,-18.818740305115977,-12.913988273663946,-6.36005525183026,-4.2772985490104585,-0.8372300596661084,-3.842020428530237,-6.813104200034232,-12.853076355104914,-2.4480353668424826,-13.742042031261077,-17.62421566273403
-4.825710686878363,-3.4512984461009046,-13.037683450589075,1.1899563956564059,-1.4808891264178152,-2.8017971027677753,-12.760240174845357,-4.595116419780043,-13.331400865313444,-2.4959402631929097,-3.354807906683571,-0.9425871527384855,2.5337617450664096,-7.422482389543703,-15.60488118788556,-1.1444409914648275,-5.021709755025164,-18.04704625082313
-3.950037092080535,-5.484580741295868,-11.923509887555582,12.335415366508718,5.247006276358066,-3.2045557058540943,-15.412691095487393,-1.3101427704242052,-13.845208458871852,2.1500773746155426,0.302022343883243,2.3703963859350803,6.175672593304946,-4.905528712287605,-15.230439119200838,-0.7200880572409278,-0.890000378176178,-12.219444894041205
-7.174006675313244,-3.806577007468289,-9.637649965468471,17.621498425672215,7.19024271211744,-3.11777310086787,-7.906883584261845,-6.522353772456848,-16.799234714147552,4.452967695298707,5.716635117223417,3.632896679034684,10.208735031797005,-6.488926772370764,-13.682903402432736,-0.3936726024795001,-0.37034511086972355,-6.09851681551177
-8.735845464914206,-3.104832781504566,-7.840256712382119,18.024769326156747,6.692603524084385,-5.275876310942973,-8.602475867237612,1.741264359593889,-17.79891915949962,6.6588759709126535,6.6389547798811535,2.8449227760504963,9.261748731696256,-5.043673157105712,-11.352903899289862,1.690344030180102,0.7365301027497049,-0.4655078542661082
-12.63955444336182,-0.644905622213217,8.117359207273426,0.3614194317017454,7.367422253716936,-4.7959891343152,-12.811900248362942,2.6796353656828877,-18.309165630237935,4.666193859495795,6.38936362831623,2.4479267158166507,10.268388782068966,-4.866720836906929,-14.295219856649176,1.332720148191922,0.6727769770962633,-3.2306797322034475
-10.193629265013193,-0.23542197141376775,14.602052707668985,-4.899350116617395,6.773252145068698,-7.928218246648019,-10.281098590010776,-0.19153962269171831,-15.302621777906563,5.799268075431808,6.0421153097154905,2.7348897473762905,9.712952252105678,-7.715922329925215,-13.525339006685039,-0.09929522979409322,-2.4171107411033184,1.3288780786260588
-7.745858407159755,-5.001404405480152,13.176375323872392,1.5588426599646827,5.496035993941899,-8.520137824266309,-10.38521926674919,1.6239853315645387,-14.150500736321971,6.737751084258784,7.452724745128666,1.9479800781258598,6.423522165915361,-4.899752756518628,-10.117496795009064,-3.191608379913503,4.552994673993176,0.7129883304731455
-7.249432836192998,-5.177054140234655,22.59064047351164,-5.94800178551809,4.9029781424213175,-6.474102428374554,-9.413274219072783,4.219923188144731,-13.778604591852229,11.485625255642963,6.031295339402321,0.4778357083687421,3.622780064093795,0.3590676619955472,-6.317822043301118,-4.42850099968616,5.078925389503615,4.980410859968046
-10.462228789502735,-5.742891513003272,4.172409946110449,14.279957653546116,0.79479138896329,-10.579321468569793,-10.587975684440583,9.256478076947968,-12.917419727147267,3.538746892608615,12.520195013798567,-0.8942748821117261,-1.2283989502511656,-1.314619736570891,-6.4232566284322665,-2.1497523718612683,0.820852907424741,8.271692961345792
-8.888060499059254,-7.089523458665861,21.399241248507156,-1.52779730057149,-0.28546038813737695,-7.847328800407006,-10.686625803089406,10.874208082135569,-14.106084144881875,5.260752206322144,9.829335047845912,2.9098568809237153,-3.247151270959357,-1.8152389506399351,-1.4492903007141869,-1.433526387201006,-1.580506887935952,9.219637063907438
-7.019222304232487,-4.627012573717081,26.321209882990175,-10.206559499829046,-4.001931142298993,-3.942287145826702,-10.295179339677475,7.9012427232522615,-12.559405073012911,1.0264157987286628,11.728471887840685,4.272932891656195,-6.6327828498317505,1.2009785226166518,-3.407827494334711,-1.498523083017118,0.6092518841262029,5.968755974404898
-4.953410868743119,-5.972639406561173,14.446085172788592,-1.2093070203479979,-5.960027885589527,-1.5986275271533097,-7.167517363142887,6.294726424083862,-9.742284828112128,-1.5469462971942294,9.135450057637744,4.4645089448077115,-9.822792673140244,6.464463960619568,-4.876882932745007,-0.19623470655191122,2.2142577220828477,0.5698711741924378
-0.5421954271667202,-5.9505210091025065,9.211749549118347,-1.2942746806273688,-5.378494286967577,1.5274210098041368,0.5518473172393958,1.2694520344805467,-4.5805241897164715,-1.0921141653641522,4.589384417095247,2.508012370211646,-9.789813306116717,8.115734004301794,-3.4150166871262484,3.0593220634822686,5.87125787174186,-2.5824110306249146
-1.6958930073241563,-3.9746887098564945,13.157328454910399,-8.60597943998578,-5.089410651771516,2.11547997336827,-0.7115218428599076,4.25139707757986,-3.128938663419172,-2.0036753315496076,3.5591212813015916,0.45426001141737427,-11.905042626734142,10.939998110576974,-1.3660187206493828,2.8970077931082083,-0.7246351586667799,-0.4606936410561877
0.5699678821717011,-1.8029601203531354,-2.4285301332291067,0.5863955388580915,-4.897467572778584,5.341393738649766,1.737869901880927,4.400574105252548,-1.4812539478606814,-3.109726932953385,4.189175699372673,-2.673321651103154,-14.605978605540193,14.937235602359594,2.2466835177576154,4.00442965841298,1.9581138959065791,-2.4401136070915808
1.6654323621867784,2.517840722811086,12.357301930523253,-15.026387827641557,-5.681590997674819,10.81451496024378,9.071903137563543,1.5216890959744314,-0.6140824284365181,1.6445200748489528,3.5498268180521446,-3.0660772765754567,-14.083990816233564,17.86129690596693,4.298036816996906,7.651173289362426,-2.584666370773112,6.909257158982248
3.8365869054882515,3.128269990182157,5.853902386251713,-12.37728012628569,-3.730793283778768,9.647972361461049,7.1301924106175125,6.8454033478061,2.49993118196595,3.7628506039761938,1.2504542625600088,-7.07175689285452,-11.706308672744742,18.247293491709385,7.522451671953425,5.829338345174042,4.59261171418056,2.294068143082241
1.5168983494105825,-0.26462557321104874,-10.708067055166346,-5.33369442440871,-4.025625840810915,9.459052204555583,6.166786449979734,3.5746064349602475,2.684892331877852,-1.8329304066969547,-2.2206434492631395,-13.420807179280462,-8.840161191238622,15.802228833844882,5.474510276490209,2.7382413295748727,1.5169420831439204,-4.273775405906374
-2.4616012072739872,-3.6568593012246304,-11.546942097034796,-8.348990208060382,-4.808256173891295,4.388272064540654,5.791039444117407,2.9399590210260573,1.6986063590303697,-4.693438240762276,-9.109585295055679,-13.909975636791799,-6.755119242130313,11.893287114209858,2.1581722666121532,1.014674217088324,-0.48339259733743045,-8.98561938669115
-1.9465168573817113,-5.778861927976079,-8.088658146457801,-10.290199025207375,-7.934188324191167,4.006071908654036,1.9989683193252266,0.9375139518733859,4.130953411066312,-9.799212054689109,-7.502118706835359,-12.933858606548831,-7.013726505272501,8.571255827356133,-0.6687315212336363,-1.880431945200785,-5.99832198711786,-7.446864238898543
-4.750510855546636,-5.165749415193142,0.2527506986756679,-19.360584952032305,-9.204146582159026,-0.08613303107994241,6.802458497274737,-6.046045346921867,1.7786500303383614,-6.896184500991082,-11.656266251930857,-12.250293801495324,-7.07690116039557,5.250162625590457,-0.1741359081332874,-6.532992019959416,-8.484794084457818,-7.17715568734967
-4.525873424100212,-3.6730016293325405,-13.964521825840407,-1.2822950895398448,-9.985346552277564,0.21723001244075824,-0.9902371442028546,5.6224736437890375,0.30581221938430003,-5.750125946116255,-6.239756018621435,-11.761622223440586,-8.604843797335747,6.617552282609744,-1.3385957474842134,-1.8099927780515426,-2.1810195537925545,-8.762440903084109
-3.4211184317193144,-5.499884973247131,-10.700784314981984,1.854170680657333,-8.519956270527752,2.767670545358836,8.308815980146452,-4.096583556763963,-4.291559924454463,0.18203483203922288,-4.53403474558404,-9.124057201271281,-10.132706905666513,9.548349529300886,2.5762620808094336,-3.531958006240765,0.510450497857514,-4.878391111407744
-1.9245783861966892,-0.09934789596801386,-0.2100823238173331,2.353673733411206,-7.054111226206079,8.73706069458786,9.308586104905725,-0.9253316373727242,-2.3453823074661955,8.068224957104114,0.29694449892079877,-5.900122021107537,-9.121407419351844,14.530814666073958,5.320330393258361,-0.6635337040756046,6.132665740986264,2.5218361326207313
-1.4035056460833912,1.2979842603548466,5.788671678380772,4.9037717018485045,-2.462771302197753,12.55888797641054,7.67320191000923,0.7805596458981885,-4.500380399591931,11.85366505172439,3.956245462717978,-0.722608120326264,-9.672588191309952,19.123474991435913,9.823328692528905,-0.7243372625439402,10.583981328341691,7.871745859874408
-3.8110991690145255,5.625824941587893,4.268103257688768,13.996706717805898,3.2032432947125766,13.354210896588485,6.820663128263643,7.2712032036116145,-8.119826618826863,17.007187967532428,10.740812207108892,0.4513621922784098,-5.829144435250931,24.20522019110244,9.835148000167454,2.438096767148722,18.84492137011275,11.561964207772194
-4.3621739706181195,5.3645411393972555,11.244096444938148,14.690830595109128,2.228963336624613,15.126974436215539,7.434551841148437,12.003547460970939,-7.539603038759138,20.892032987685297,12.838028186862788,0.7468360730636449,-3.938846225028862,24.600159308088827,15.512178753036014,0.6205452388555526,25.934919575378867,18.76834552604131
-3.1544321709378362,9.596314719956025,9.333587256435216,19.486320088432556,5.747363352344462,14.654450282483053,12.63989270438342,10.583010575163348,-3.638659916234401,27.609822301021257,13.177627433168192,-1.8869999240416035,-1.0719779332570658,26.85132947550933,20.506652358456794,-2.6612869863421524,34.97900114898251,17.18600761405989
-3.312965902376501,10.996826222500813,10.646148320022073,17.152521055219765,7.020051338318473,14.96400497869716,13.15917644679421,13.849617591448109,-2.081176364229285,27.883066510173077,13.517450249052821,-3.836810699601711,-2.0137850261180943,29.78680566134954,19.64269214386042,1.5771375761593238,35.43010671587297,22.049549916489884
-3.177638069938498,12.886448844727626,4.537097879242591,14.232488012607824,2.9219715930160435,11.95398953921438,20.223018299111956,4.322648320754679,-3.0624976339155454,26.20401637153387,9.365240717017748,-4.028362787966521,-5.0064440146502145,22.468888163381823,22.00245052322017,-0.043266919860886155,32.26875660353846,18.22201361599491
-0.11173418875347352,12.04248614720492,6.338712103067797,11.800441985888765,3.1212322948109845,9.92132014861786,9.807588379224342,7.979076323586324,-1.6021083327124876,20.033564132425226,11.365691787017347,0.27275846070917564,-4.190505970426202,16.71413011893732,16.843557680365063,1.4620353173577156,23.05348189698638,16.152766731823966
-1.4396292523971157,15.496303328441467,22.59406957878927,-8.307970846097296,4.199804371072277,7.694079082069324,9.354684943010648,6.263945028920222,-1.9969779631812323,18.649187370265174,8.385819504182246,3.3047438975026218,-4.2535575592394395,13.10844398565392,16.08023852542923,2.5773884732236763,25.069676191978743,9.39638716253623
-0.1300104115868126,15.239972502752977,12.482243941413163,-4.881198331491508,-1.947912843082197,7.030080379946339,5.778143184123894,4.6461012975112475,-2.293980239837098,15.410150790819973,9.312475790893696,0.2823613592449418,-9.394896419085466,11.261164309986412,9.165436750954363,4.474707376639413,12.92629964750191,12.015577166163775
3.5241047414075792,13.324311892672434,6.081827168408557,1.2796466711081476,4.0143049084258635,2.948753598986984,3.96082159038211,-0.8784094584094939,-2.2978277799052043,14.222753808219425,7.0166423404124485,5.268322104904923,-5.844795689997396,5.605764959083569,4.693012135076276,5.591489235218979,11.23307438440372,7.115534317315117
5.421046844081547,13.069689196253734,9.642921634404605,-5.35303074241222,2.2619280359835074,1.7978257646270643,-0.5895652799188023,4.729716833947061,-0.83665537925781,13.133830208073658,7.846068145722068,2.6373839578257727,-8.056615115659676,4.052487548178231,8.034118056833796,4.169914865282946,11.200774418279961,8.661301028062583
6.2443759224515585,14.37845004333364,5.782455583541873,2.8578956609594646,1.0958560684194363,-0.6220123921503236,-2.794845194548394,13.950845598226916,-1.8167999012922724,13.315260250245274,8.675700575687326,9.089016285683343,-6.7528833069215235,2.890302288010533,7.372144665720553,8.12028043313501,10.680899131468449,7.082403305852511
6.091705710585057,18.031858547644994,12.762431388028453,-1.236440099659342,2.2739199125878224,1.7439922435539206,10.528745667834492,6.569835353294085,-1.1366630989980795,14.181083675110656,9.017245162840364,13.587889807684435,-4.27739969099661,1.728542290741201,9.250136303409198,14.415214274113916,12.603149448748887,8.042973605851143
8.088040063921259,15.826665541897599,12.2231978415594,8.731537602921424,4.233587287280499,3.8176101093987684,7.251778879396546,11.981675913443175,0.4224666856964818,11.824975877561874,13.362951379071587,19.25904710800901,-1.6067550934250878,1.5437488328712963,11.128966537550777,16.21869191251981,12.865868080587536,12.324256381364773
7.155132872764466,15.477832305571024,7.582778760513691,15.6717100541544,4.240433016095974,2.180792953555988,13.253522848323186,15.635373328825784,-2.901243219513578,13.473593466723443,13.607219424946889,21.70788432088712,2.4309301613372174,-2.4493436085270286,13.594555693741604,21.733979900247363,10.980733221260984,17.973078387760186
5.05078007456771,14.739229423963089,17.103173434483168,10.404235519629083,4.247603446175029,3.181266296183385,19.549431966336336,9.327686052637219,-4.955380774837307,12.974481513161003,14.730585902798108,24.547731811562553,5.003568598631883,-1.070943781000432,14.40074872375159,17.972614219947545,11.146993715971037,21.180768366766813
3.532777876606188,14.97806266682801,10.803456499375725,15.976326550127393,1.3253579257418835,1.740799849767571,20.182349804266078,11.613592628302777,-5.1540247151301175,11.890145443785805,15.854122248989322,22.700380615334613,5.720516419975235,-1.6454185131626158,14.328779633008237,16.458222668256457,15.024796318781629,16.966761253343506
2.112794766565065,17.756852086263983,13.781667009701458,16.958046133993005,-1.6942375088151564,0.9844133180892349,18.27728902531665,19.465710321556237,-1.8370182229104586,15.982372424593434,13.852771141215431,22.611234653668383,7.609150882032393,-4.270461794223182,15.624747660326676,18.06973840801046,10.309230127203922,20.370327815256942
-1.6506552321453043,16.239550890614893,20.37365486465046,8.368835522484064,-5.690110913851666,2.279286933645348,10.806823951707301,19.895566200545318,-2.1334006856348777,15.485367883210152,11.36328121519322,18.616137632879855,6.958465300653529,-8.457821037062882,13.210420690404598,15.580501218050799,5.9847708057879725,16.742784955842787
-4.632566534065574,13.062911899439946,19.348777775052795,2.0252673576078957,-7.7325384350342485,-1.112991619357821,6.364799302104048,11.242984492760892,-2.8204906325443075,9.129559616608732,9.557534322829188,13.937787191186601,5.135655587394673,-14.69582085474298,8.550634381666507,9.7717846261548,1.5630924783705353,13.017809324431866
-7.907215969694425,8.812874220153512,11.097663542302733,7.009497665897348,-8.993421246274192,-5.383798806159607,0.7518951924815322,5.422214618327677,-3.898311618708996,5.118175229065826,5.896417540374984,11.896538307973389,5.949361246893959,-19.859449209475706,2.6219349073975238,3.085042813560152,-3.3464737002614893,8.511773056269355
-13.03716862469223,9.055920554305933,11.245546461617783,-2.167157403264734,-12.304842034998941,-4.771356341271854,-2.12561643609563,3.5074961687133293,-6.441121947326476,4.330110867600231,2.137757893642547,5.070394174097322,4.126052023010926,-18.772881192401176,0.20951955552363088,-1.257009029785559,-7.8650466233812715,6.545014893948273
-12.307503791535932,6.565368511394449,7.096915241739078,-5.0942436783688585,-12.881579679310939,-3.963264154041614,-0.607592232700414,-2.020813054085071,-5.273084165367285,1.1988509246851144,-0.1559336526353725,0.49070317659394913,4.841575910411365,-19.053455465247414,-1.5187188322000207,-3.7426507331006444,-11.309061294776605,4.77372396138202
-11.870699349733927,6.810040806474844,8.515195641871816,-11.342233028253931,-12.872112521099416,-5.596309619525069,5.89187548517444,-2.9594597254236445,-7.620893437081758,-0.2716625360817737,1.6520884640328415,-1.6472284204620813,2.627087269545793,-18.259763012104752,2.6130465983926205,-2.516377236705594,-12.01837590812194,5.736975748634724
-7.918143141548712,6.860193413431649,5.051002577682133,-10.266444905565589,-12.081133047716094,-4.3970031197535695,5.263187695312326,0.8868741664429338,-6.648529974509177,4.020169470318361,1.3117149474805654,-4.95674649924114,4.709246705841721,-17.270757486756672,1.7647726764352507,0.4686637987675084,-10.383661753839128,6.505011708628214
-8.653124475330614,8.278337288226416,-3.8816181469596494,-1.183288025598007,-7.090628228245727,-3.97870931823448,3.4634268550408978,-0.24758346416197075,-5.4810631211014265,2.648364472391311,5.3659999918377395,-7.972994702739715,6.791101502208827,-14.914579457412216,2.67480885068062,-2.4048250510758056,-7.283879341524644,6.003569820310539
-6.556035900515177,11.552747207480373,7.889599234299987,-12.413519670955399,-4.834305392931171,-5.806322495906272,0.980841568970348,3.7935737002449463,-2.848963562175091,8.601374303644164,2.4866309164130396,-7.766250787522001,10.044532391089115,-12.656127889651595,-1.7858950980735457,-1.468722022982881,-7.504299271739101,5.111542382822883
-4.0683588406131825,14.144306993887477,14.485344189474826,-13.976225986756006,-7.36298477391462,-4.0204062964465415,10.413239856065472,0.9007866583601585,7.204869883351423,9.964926377830743,-2.4435204868659,-4.141209418272329,13.004661111989027,-11.96030112259288,2.933628391031718,-4.0473529363596,0.28333452341858933,1.289800363166103
-5.096440179320076,13.611557230855825,7.995329599954745,-0.20727011922715466,-4.42261125891277,-1.160089862304761,11.936059689334394,7.578213720676783,11.594279396213803,10.449985893011588,1.9038280721921357,-7.644916829102938,13.620662945056313,-6.577035361097985,4.919098808239632,1.9688458966000582,-0.22986277263087818,4.69472057559772
-6.319953367776568,13.763132923882091,7.267488406562232,2.8187195507504508,-2.0679722575904913,2.3839681256858545,9.846200580418607,6.931065540029423,17.252944199370617,8.20102626941436,0.5870264754484698,-8.51160943076361,17.751990095967713,-9.397183179959457,5.928318808358808,2.810136264181307,1.698417644953956,-0.3966216157600062
-4.906859876383086,7.665316751774546,17.380011487436164,-9.78115542172487,-2.545203239860257,5.830478229430126,9.417139212572396,0.13123418427540656,20.76282336307498,5.07351451252825,-5.612679503768126,-9.866345430680392,16.707091459476736,-9.873738791754144,4.789358425828375,1.210937292872309,-1.8421441549415558,-1.6793796820925149
-4.665846805553656,6.451072445804457,13.430162832702687,-6.951744770305114,-2.1433174606995564,0.3902165472972374,4.594054231149926,10.616575982804411,23.393447776988708,0.5791313763343258,-7.613136411162447,-8.09579903945998,18.10325850191767,-9.666913168010916,6.287409466907196,-1.2662255002556684,-0.4998710394245567,-4.817731476674876
-3.839109351523758,5.432809002222543,-5.949278819334236,4.373241211020348,-0.47169128192595,2.8602873467623944,6.314570933956424,2.742014012536721,21.92209257138962,0.967941249663431,-10.492563303741264,-12.379808474874421,17.057591922365628,-4.382136605716246,2.5121571837996335,-3.7424314891124766,-0.23192879329520988,-6.198369677459755
-6.137675426322449,4.512848413993682,-11.363347169519448,0.853592251300034,-1.2413261024110502,-1.7986281118104728,4.324584928845929,-0.24991179154981857,18.594866609871705,-1.4750486987375009,-13.567372722792268,-15.68702711883747,12.984132962339595,-3.4922376900418857,0.6902362559951474,-9.147412605210597,-0.1594416787563917,-8.165109190504378
-6.776348803260126,2.4216190468594903,-3.88629138107825,-13.311418822929257,-0.5459195509067216,-2.9418626074815597,0.7725247948327976,-3.144433336189545,16.536798705972764,-8.214736256463441,-9.806224215995321,-20.06827819386937,7.640708612515015,-5.239404054755336,0.5286351207770519,-8.789630378273324,4.112144427150808,-14.13600008573367
-5.559846281975706,3.749012974790853,-0.7058882353744842,-17.125387491487814,-1.2175532962263111,-3.499174468476424,-9.029222670818047,3.2382739143838255,11.255614238759543,-4.114203657763998,-8.97490871542311,-17.80861089956674,2.58983038193066,-3.764197389781656,-0.31647053562053173,-9.016838977656212,0.08259437081462728,-7.020966970397351
-4.050723212053794,2.5378856830696925,-20.47478106828226,-0.041287028792039715,1.431337003049466,-1.4197769198997543,-9.55311837911545,-1.609918878886127,6.071658106476339,-6.751876299248018,-4.823347818319885,-16.525339614913946,-0.41067472600594224,-1.4104286771702794,1.7682169571023545,-11.098590728767975,-0.5292076520287559,-5.082036294506274
-2.1513525770562536,4.1593899065911195,-11.629698466884996,-7.665290880042013,-0.11890181960687007,-1.0006359143843957,1.2516087575299748,-5.677113436702719,0.5942814051847063,-2.0650719349303195,-3.8946270976774775,-11.921534389916149,-8.392176289148686,1.2359313237200702,6.880316503759193,-5.269113951483723,5.987687685622149,-2.069141593722442
-0.05707978730893082,9.980710476001928,-12.257174837234109,-1.5202578150102006,2.9209196716889307,0.19966707146425677,-0.9318598191798912,7.247871022929655,-3.2233786652175915,7.016444786970846,-0.8175878184773957,-6.829280266774263,-9.928730950061203,7.006933678598342,9.941586705527023,2.416808512850521,19.437919955980593,-5.6972730537929035
-0.014061993243716486,12.286861879309411,3.424417131094409,-9.829282697231328,6.05853824306603,-0.7486247155937202,5.478795442145525,9.820862881300654,-5.186023868077822,12.387048932423369,0.3061279992744419,-1.6392187436383094,-10.977473029532137,11.605615363099027,11.244961839866223,8.736467677498002,16.969532898740695,5.811216900289471
5.106687519527542,15.374760182019077,7.289631892294468,-1.4395539607400725,12.907283071571305,-1.6970650862526728,12.280283647313684,14.835021442699027,-2.1686233842123417,18.343648558240023,6.312545296198832,3.843955162927382,-4.311741846931665,13.957719737917186,16.84518286735282,11.83436231700658,25.926648595424535,12.924752051940036
14.719194814531026,11.04113030436886,10.080804209503265,4.8009774373346445,19.463179573936852,-1.76675799352252,17.714725100773823,13.110514231839035,6.024121798556297,19.124404533103284,5.482718478017414,10.010861956113619,2.2558313940887524,15.625750129826132,18.63661849168095,12.00346089744592,31.465245331916826,12.322941383075566
16.811531188331365,7.000908456306854,14.532333921336855,2.837524928107368,18.597205445780958,1.2884014749998483,9.96549327620534,21.932756130497374,9.62642161375456,15.022257715962647,3.1878065929737636,13.345812571444188,6.186133567322565,11.3361690623062,16.130941261682572,18.13061243618779,33.19464691725874,6.3495431884063
11.871959515207754,2.4728071599644412,3.5540994194845705,12.494603511283152,15.3875558589054,-3.1763029393916886,14.716534320463747,19.32875029466023,9.907811064526948,7.795015228333984,1.4786056703190447,11.212037642812517,8.065099352977782,8.022657609476614,11.671898358858423,18.496882213341554,24.76705503832158,4.282015748363117
6.931812111735514,-4.984642881215603,4.978539397092524,11.701558101020334,9.638907975363875,-5.8834079563473205,12.533918955234695,16.822104592029184,9.798007189633648,-2.1667239474546083,-0.8167935111498883,11.812776997656002,7.990374864747647,0.7046536114454109,9.263418773545533,15.153076316559645,16.924775982431505,2.6046538741966394
-1.0363250710130032,-8.926056786679013,8.551573769041001,2.8021690837102735,5.062248522995372,-6.051673113703258,12.792751824189532,7.479113886076245,3.2422154092670716,-7.8316342118505915,-0.8663326237305169,6.847112421425425,5.864290883445184,-1.8286626372031565,4.608523871832524,10.638289001502299,9.374791533351761,-0.3427500164241799
-5.880037622001215,-14.72263634707626,-9.945934473836624,7.281134355749772,3.4154093926306235,-10.90779204427795,-0.2299009987974383,3.214016810804634,-0.1891199371499086,-18.18425899384231,-6.873277742798765,1.9791825866784765,2.3704402730471847,-11.100919662443681,-3.75769016491183,7.9799027146883486,-2.2775414177065603,-7.196980307652192
-9.650160395562,-18.37044035386385,-1.489817279749543,-12.26446504036935,-3.0165783448479138,-11.564930640182638,-15.401094188437217,0.41347128667368516,-7.625027552587813,-25.41200999808988,-7.314031173775522,-1.4238143450400513,-3.9560542073866394,-18.322934879258057,-9.682823007784151,2.392680207656144,-13.637669109002601,-11.70796637528623
-13.42094991892214,-15.767869854204633,-10.319048431308573,-11.888650068487683,-2.3194778680506474,-10.952840712751831,-12.60336954461529,-15.375873905968533,-11.25290135232799,-26.780500931795316,-11.856724541616575,-1.506391447132071,-6.767450392451455,-20.662646656101586,-11.799703111878184,-2.0217618709324263,-14.451573045995222,-16.414833496198256
-13.09080154789509,-11.114233747478382,-11.823894874087662,-6.142427569416436,0.42850085246625236,-8.778567993410949,-25.43102509290349,-11.633996917234473,-14.979063497062238,-22.8757081215605,-4.192530276211708,-0.12405584399250458,-6.747363194115391,-18.41303982022567,-14.99125375284471,-5.263432383872914,-15.363990733244776,-16.04408697045444
-12.370728888969282,-4.7025312157552595,-5.223112068670913,-12.213562894451034,2.199960390899358,-5.530419463874589,-25.27037747311544,-17.267594335062302,-19.389472388081348,-13.111714411079575,-1.9975140316826607,-0.011234236952820886,-8.583374640542624,-14.796830150092596,-15.448858721816404,-7.039367368676022,-12.859286900316658,-14.990347554285606
-9.69822660681501,2.5882922789777885,-21.669536384192895,7.984460002211295,6.901202882627113,-0.42715079988581106,-28.91859150923682,-12.452150263750422,-20.187198804012525,-7.351980186740847,3.908137444513434,2.83603083647057,-7.001977020506717,-7.274925479566325,-13.465526222262817,-7.154260967883387,-4.691376382241884,-12.472374910138583
-1.5576335777575792,5.582350916538255,10.90822728974801,-18.79166610995975,12.18843511510656,5.164012735558569,-16.453520694201167,-23.26228647645783,-15.516756393410429,2.704374529648281,4.53989813088555,4.413762251494271,-1.2219184096797597,-1.8044557383789175,-15.19372813411465,-4.143257037792461,4.745100231507768,-14.056680897492965
1.1133667757933345,5.5491699798091965,4.4228804224505085,-12.071964998964143,15.131917466339088,6.946114381747673,-21.664774505259963,-14.736536924359367,-15.436902454157794,6.705602092099792,2.0462247965612375,5.698527744633588,0.16291033521859177,0.44267972371143927,-13.309167411040871,-1.6197022293922494,2.9499105514569073,-6.266517094361801
0.46322921173351883,4.832510193159503,-11.437640690261027,4.705704543989096,13.778487759071261,6.188689282885852,-24.630204203235863,-10.019790670809774,-14.185839723840344,3.186809991742326,2.1889110339103968,7.37392195685574,2.23070226085365,-8.639116664601302,-10.54629340183095,2.2718899735210267,-7.73320062378882,-2.383354882881321
-2.6291411257596633,3.725320084833784,3.659294173571827,-6.642834549868146,10.08129347926517,3.5753268705761196,-14.021540997983353,-18.29187963727062,-9.22447570029101,-4.726979667294939,1.4522655841418604,10.611828366267927,1.6610850569748212,-14.108214459465934,-10.22550100787291,4.0158301249838315,-11.874350574869037,-0.25874167212344334
-7.187180338194767,1.250997955927085,3.5215577557133977,-9.105298961694423,7.458348289677486,-1.7729065252409606,-27.63235816753122,-3.1264707701365424,-6.705256086102188,-8.539568204339322,-2.5075094433341008,6.232410145571873,3.239279150898238,-15.183354181748076,-14.7882645348352,1.6589523924878655,-15.430700875899785,-7.41234007818881
-10.183510964193832,-2.6881377877511436,-13.022758683581717,1.7129098977686725,0.3431538547134245,-3.9965597511405155,-13.899395507262456,-12.082887179816161,-4.675033484252341,-11.180711623489671,-8.909163743270364,0.5834113132981777,4.5238325170008835,-18.3099477558673,-16.32433685560539,0.47476351100176917,-19.378867503483946,-12.418210028951036
-6.539941974434933,-3.6975122010988137,6.859166758579206,-22.040499884639676,-3.3540199057999285,-4.462853656192467,-10.225592794002228,-12.93407790528427,0.18654853063730847,-14.99421853469971,-7.108014720210123,-3.5031025772791136,2.096716057394951,-14.210509568467632,-17.665821239407947,-1.1969295107609614,-23.035283950331923,-14.397446252420659
-6.217573292184419,-5.488142228031087,-10.271301637582622,-1.0674420956206667,-6.562912088065827,-4.050719607211903,-7.235830967674802,-9.195724478087017,2.215334954405722,-12.362807060270635,-7.553451088385907,-5.34353605912673,2.500990509903455,-12.064865511526275,-14.515804868562636,-2.9655072708151344,-16.63421292694168,-18.13529123781504
-10.290649457123576,-3.4701363088903356,-12.069629885681914,4.474917017698264,-9.478844901573044,-2.174222074179252,-5.80905235049341,-9.364052760618081,-0.5418344326223359,-13.149929776047156,-4.776649336209774,-2.8870850890784627,4.467097755902742,-12.165985741347708,-14.49161813110223,-4.635665970275978,-14.43372022485994,-19.237158704882106
-12.41142572697514,-4.381900099813679,-12.989177817480808,5.621904217899255,-10.636958787770821,-5.474097490212052,-8.777352715800246,-8.067889083655775,-0.2723451813472648,-11.496142029114685,-7.9574463683533025,-4.434665847516756,3.2098014002245234,-14.416208071703998,-13.589319216317854,-8.160572189599302,-17.703391164377145,-18.972610078598155
-12.091620737747917,-6.270299696629067,-2.385265584208821,-6.025043581837805,-12.185730366047949,-9.067468133366074,-7.839844092004724,-11.94796136973224,-0.3942223080614147,-13.35858462469224,-7.134761397824898,-5.884661269808233,1.0728804607641609,-14.225612892010126,-13.66442957197456,-14.223841957886563,-14.919646039047581,-23.689408025638976
-12.846919444577146,-6.986884980277905,-7.016127319408908,-1.6568900474870398,-11.879037722714465,-8.852717373550862,-11.883399387073009,-8.113449056958522,-0.5168383173371796,-11.315286840822036,-9.63293299936172,-7.04176363419484,1.6696649753061918,-12.961401369067145,-17.744362353195577,-11.692504793294804,-16.629553313150783,-23.71944456581151
-12.333541373629002,-7.312937255692491,-5.69004623353312,-0.7075220557938007,-10.595806384324435,-9.41976661445884,-13.095416546336665,-4.669945247384408,-1.3238002132775075,-9.077259176448862,-6.858087445370973,-8.784900083517508,1.9727590660365166,-11.697800088000015,-15.868050081024949,-12.18784368946876,-18.73151930090951,-23.84795598128691
-14.164827187485436,-8.713341184316995,-9.051728284963371,5.612260824216895,-12.144693822490993,-10.18267618616947,-11.182938094966064,-3.472947200968342,-0.9596131187872197,-15.043082478113039,-4.865011354214595,-5.449928881402226,0.8102643478492242,-14.731739710036939,-14.676239886459562,-8.385540055898858,-19.174761705243576,-21.145215795813833
-16.68059858052538,-11.578745418816139,-4.7963099410902945,3.3374059683225754,-12.521738026226338,-10.65316330688649,-18.15788039518729,5.048003897413675,-2.6469840109723695,-16.126633561161334,-7.46236263268956,-3.482267767255934,-2.1107974564550522,-14.445905266669728,-12.020481059700813,-7.707594048010543,-18.54525603734187,-22.8379012158862
-13.533104734013119,-15.616193522577241,-9.720933652738482,7.800183180824559,-13.289467891122742,-6.436634733547908,-8.922217129103894,0.38478338350505004,-0.8194226262233015,-22.386672434320342,-4.786714867838569,-3.077238800093875,0.8268727906698826,-13.281727709480668,-12.295390240670322,-3.5132912107365053,-18.893842717660867,-21.113396175694604
-9.800549456335325,-16.72407624631892,-8.102713808497311,8.453561506456941,-11.420498237680276,-5.541029363406055,-1.1520107281880154,-2.325657768754844,1.300365309697046,-15.36589775046567,-10.70547178961201,-1.4027737742876831,-0.3378185177825208,-11.727481894620357,-8.469627225299014,0.09573153972615067,-20.41586389793785,-16.06936027542654
-10.170504646616733,-18.418087088007002,-10.78166950231208,15.942239968801651,-9.551592521339245,-4.4506719003304305,-2.6598904369557923,2.3855156324894535,0.8803056493403023,-20.064701276812258,-7.93321730373487,3.6895916630970014,-0.8196457304905642,-10.759730110820325,-5.719068073751867,3.0218046889817303,-18.716746728178723,-12.783996587438756
-10.053055965358668,-18.061480900105888,-3.9880686860708066,10.539360770070878,-8.756990060303274,-4.923404160632567,3.3512664475645,5.826766954919206,-1.3959964974852208,-20.857853627177168,-6.431044087213419,7.121649430433667,-1.9858203106694767,-10.476113744837477,-3.26246544159567,11.222038678706983,-16.433274428242388,-9.890096074596526
-10.522437101475504,-13.408142449282197,-1.8822923514787382,9.530349982147644,-7.278855414286097,-3.9318378420094056,3.0140536558002875,5.654313175711964,-5.528539595199726,-12.960133311054992,-4.14814204668413,6.354293032870378,-4.031660308924678,-11.169588453002786,2.415845996766457,10.243076340435715,-16.299886737203128,-0.8445882302456145
-5.133234881620434,-12.173044924130402,0.027907527396240805,8.422957980681606,-3.749983811809778,-2.5502088805229337,12.246677089937425,-7.40932777237423,-4.485964217095867,-9.164710803135323,-3.330640917412441,8.125901639988903,-7.15248322845802,-4.734543061463048,3.4055772278845673,7.018605687326375,-5.621099234465013,-0.00315771618591576
-1.6980653513275694,-12.598359625212005,0.8636039300674527,7.900795723526292,-5.690024546837925,-0.9738327088193772,16.49812915709644,-15.981074387708048,-5.1043094410868495,-9.373933623644863,3.541104319542369,5.4051134222596735,-12.32486793029574,-4.3547526030919315,6.640416996022752,3.8924010511567992,-0.3151441490957616,-0.432100645361551
-0.1192667954429627,-9.996524535223386,-0.7424181938902312,7.182608423574841,-5.481676910678133,-2.425413867774441,3.658847196275717,-9.318570981622202,-6.504652285835441,-6.458790753446482,1.232485973021471,8.055355965292723,-14.861243769306226,-4.170731676747614,3.038185918861558,2.4269749634553692,2.352375857974563,-0.27591444291993206
0.28676971829026243,-8.762146339772237,3.901374019522855,-2.7161085166657886,-1.5624198094258417,-3.975218440136852,-2.2473661716307447,-8.222911409436119,-8.589331110690592,-2.860728466821686,-1.0766678696280998,5.23661632852729,-14.273322335130759,-4.57308918131392,4.0248312996979765,-1.186335613819434,8.729195701605882,-6.663607475674235
-0.28463483609670703,-8.69991679417762,5.517489938315019,-8.513894576109942,0.30593760584654106,-5.330270670240209,-1.2205109652914743,-18.162923801463002,-11.553656924094945,-1.3141650292972962,-0.7495969650306842,1.6364626503632713,-16.029936763996275,-2.9250430417086157,0.32286079002146195,-5.775648815400081,10.807363675571235,-6.118403814190438
-0.3686081543289177,-9.028580057685414,-1.1675930245215698,-8.452902196737814,1.5882592105590438,-7.0765136493368175,-9.569428366706195,-16.189033384498693,-9.440502545048254,-1.819100765692638,-2.9621595339441815,-4.795920588581299,-16.713065229847214,1.2617195236240804,-2.6965556782167277,-13.098814805477016,14.739301562468718,-10.652196603035643
-1.1370362415367694,-12.38490002976789,-2.872426120093407,-5.560512707869781,1.5032811034709872,-9.409258702500793,-21.14167788073502,-7.867724985552766,-7.621038100442649,0.01906350903476195,-5.956513498718408,-8.396387009136507,-11.049188229797142,-0.020711147201062374,-4.252160697429883,-21.593320390822655,15.251476708306203,-10.206228638907858
-4.738381864061711,-10.174999321944464,-4.577557285296526,-0.42266355084184515,1.0275789426148152,-13.988682461198925,-23.437064453736262,1.52749030344272,-7.560123577927167,6.153484666390305,-3.8731909461038545,-14.633772164501126,-8.413446666334881,3.4817535971891083,-4.441615256518089,-25.49736934314594,20.840098971663792,-6.928959186673291
-5.020199270637937,-13.72717835689308,-10.189298584660154,7.839574323343079,0.16115121182092418,-11.244320656825739,-25.83072537182462,6.137155456123672,-4.4725230790977175,4.083975213452744,-3.7435449108508174,-16.965009112351968,-2.1651114455157923,4.249494568753763,-2.7766326365774683,-30.084489847297494,19.200280710898394,-3.9454238925539586
-5.205185192363536,-13.373322247451068,-24.688196483396368,26.06225250337096,-1.7796075682180155,-11.332571758422148,-26.36949861557698,13.676239822051478,-2.459854559300698,3.576313571556776,-2.2472072229603124,-16.07370320913782,0.9574367369887966,5.602902559561283,-1.8939725346682197,-30.47180488197791,20.488415665597596,-0.3766900680308538
-6.855854242625741,-12.14082114426646,1.4382223001261814,6.979034935631784,1.064765921132366,-10.44477664091651,-22.025985581354394,12.718796170364817,0.8216753544697246,7.267264281656729,-1.9232733719108208,-16.745084415354306,5.641773385297094,7.93263694166105,-1.0123724737628796,-31.24923798389857,18.25908290498841,3.0936520898211786
-6.847149009453551,-10.615620516735685,7.349185446304405,4.594662490418305,-0.7785300038238678,-8.971558269626463,-24.226131775440216,16.546286003594382,4.102524108594826,5.391060024927143,-0.623266573581529,-14.389239149413813,10.520694711935311,3.7190808803875104,-2.670931872219784,-28.998777765328022,15.4420057130447,6.856248448859786
-8.890053429796101,-8.211771780005193,1.1502859334697035,12.854366260463012,-3.2078709572389434,-6.619934714401916,-23.00883620052197,23.889168015636585,3.9646793038010717,2.6352801501190477,2.336424598531413,-12.03355706832939,9.441768253397928,3.5093001728485334,1.0406293154230184,-22.939171598123806,16.627090129861404,4.465703957314389
-6.343830564386269,-8.347292530099425,-17.15847492849204,28.340136740580146,-4.953706836411114,-6.612601998872565,-14.370118617241928,16.583112325310474,3.630855286660621,1.9296658008019332,2.5612098253970537,-11.631192195268941,9.534014790718047,1.053229981100328,0.1612259574532553,-20.101785856414132,8.923507900707719,7.93393730699438
-4.4819873902464735,-6.72523773731011,4.669795910609155,3.1020353535768503,-3.672252225905245,-6.8987375131449,-6.61087268080282,10.155709868857768,2.8080881546975673,-1.1203712812600441,1.6136216753380568,-6.736732412160395,6.109869130383543,3.87054745936112,-0.6215647897304981,-16.38500435093603,1.511081252049943,11.792132530471719
-4.964694161007539,-3.44325953544375,1.2044154022135904,6.086438915645097,-7.957388444906738,-1.6188661427299706,-13.891455123658114,15.446980529842907,-0.261451720416388,-0.4600400588531812,3.692952436764746,-4.088560036104521,0.341231067990734,3.953349676864585,-0.23350088863755936,-12.081809037595631,-1.6062265845490895,11.352736376734814
-0.7605819634721911,3.647119093938308,-4.800359386431368,6.531172027258421,-2.086219368242438,-1.1246970252552213,-10.527863405774411,12.04646782947322,-3.6245994845584812,4.398960410246653,5.967137842337646,-2.124148996751906,-1.7171120129390398,2.766535058561656,2.1066877429601725,-4.848422758306885,-4.823016772502969,16.57685738240966
8.22801881530491,3.998870065412465,8.433151982279714,-16.364850729677414,-2.7582184592378303,4.6425289722938015,-15.758654193130662,11.38013906755707,-5.523505425398437,3.495553958837874,5.115825656796568,1.2073159430618707,-10.22155700966437,3.532841879979829,2.4927009247215706,1.7018095925208172,1.3335099067444989,12.4252233491789
11.454084317317115,4.155070916685823,5.259879517297004,-22.464284417004436,0.5736504419370831,4.842815144955768,-10.052260099247583,0.166553796211228,-5.665185612997207,2.6892194004183576,1.3343430219902146,0.046373524859770754,-13.648481924839277,3.420229022671524,-0.24734353665142006,6.006355722751854,-1.6916174405815942,11.105072294565275
15.363037627767739,0.7953685151125711,0.621463394049818,-24.95090968090396,3.5147893643341543,5.726269833960529,-10.108134155023452,-7.336245189304103,-2.6824206755897726,-2.316968354490776,1.8493751021461566,-5.021026216066386,-14.341663276343644,6.628013120126251,-7.187668831885823,6.697998842147236,2.6057603340750344,-2.4228665662159092
