Fp1||F7,F7||T7,T7||P7,P7||O1,Fp2||F8,F8||T8,T8||P8,P8||O2,Fp1||F3,F3||C3,C3||P3,P3||O1,Fp2||F4,F4||C4,C4||P4,P4||O2,Fz||Cz,Cz||Pz
-5.376348575333464,1.7487886638321237,1.2391812678321767,-1.5803529476460318,-3.4980115857732477,-1.2559734117270906,1.0960284880361897,3.334975323045354,0.07029270964611989,0.1644933646616913,-1.497172350541529,-2.7063453151414265,-0.062472597380434536,-0.7479136650525335,-0.40176693018822585,0.8891720062090345,3.3871807034102743,-4.505224468687506
-7.611731631752045,5.195834579354529,-1.90761818250291,-10.279906498325161,1.790973064411098,-6.46787587664876,2.318309412853915,1.5264807094518185,-8.775190613967759,-6.272727164229939,0.07096883288170885,0.373527212030218,-2.9195111371446543,-7.5486682788840715,1.999682743389673,7.6363839827138325,-0.2671554598599881,-0.9715629696254287
-8.577367678971413,10.59671802547696,-4.467986060297402,-6.870225895935301,1.6113046204246093,-3.6725880194163247,8.032910402827019,3.136795694121515,-6.973799031374817,-2.6510431475995198,1.9313878079929485,-1.6254072388061944,-2.2597231661912964,-2.630924624975635,5.865330997230141,8.133739491900394,1.548012974551982,3.7327800650448237
-3.9763137229338805,7.697348163032131,-7.809147280681859,-8.636733154606713,2.408367900216792,-0.5851292418666905,6.716232957180862,0.45100920704983416,-7.025704591569751,-5.767616529092399,0.7637110739617365,-0.6952359485505886,-0.9151592846641387,-0.05744302907728738,5.531002652408568,4.432080483920509,1.7036557673183748,2.4787742988291925
-5.332180648457335,1.9665300632475482,-5.973996437259382,-6.301944775044348,2.8149286455961655,-2.2837595741234704,7.743434892350244,3.625576023123749,-6.489446046069136,-4.001206942132299,-2.2601784231638855,-2.8907603862091458,3.360331875010659,3.394436413422442,1.2896449750430494,3.8557667234774513,5.082644072570959,-0.5343118939698568
-2.4885610121620534,-7.767657753736225,-5.114988069084539,-6.506588698105323,-1.5636371879796895,-1.1512323821120534,4.278489072060751,6.703423139702416,-8.880685259683984,-4.676175645060589,-2.8433496366420306,-5.4775849917627735,2.851811638936248,-0.6738971997033589,2.418717643981624,3.6704105584638844,5.53252376799116,0.2599990997558175
-13.219161040512896,-6.1729788745380825,-1.8141183303982515,-2.5122822579399617,-6.723387811810673,-3.0470686671066627,4.329344755753342,7.926759671986698,-10.781385534816447,-8.08552661298063,0.38139670808794196,-5.2330250637415885,-1.3664626294111792,1.7025680345737908,-0.8475786448360165,2.9971211885031375,3.7368819036696213,-0.9977698037977423
-22.387028532059468,-2.526947559346068,0.02228598358312084,-0.959752976274046,-7.195515130353412,-9.826821523646919,5.063941927704381,9.73707680038615,-14.047029153143274,-12.666766734990901,5.265581688110947,-4.403228884135088,-1.2865346193972604,-6.273343767100515,1.0611897210146406,4.277370739580404,0.8675935973578297,-2.940421996205948
-11.144217169430817,-8.64617943952044,-3.4144442954811733,-4.1927875946421,-6.3004074327629445,-11.822430092236013,4.822113320940837,9.204689185579161,-7.056331295253494,-9.923703298197944,-2.741806154230877,-7.675787751454404,-0.6193774670856425,-7.218599038172258,0.03940578298190922,3.7025357038041307,1.026265543108381,-5.958599247049306
-7.909126884851705,-11.346908768519526,-10.171171764343493,-4.984714105071448,-11.557735584339175,-10.791788436461042,4.971081467786533,9.942979215804295,-8.461907651396785,-7.571328373631285,-9.871033158049446,-8.507652339771193,-3.4665959264370496,-8.555229762444428,-0.20196044119577894,4.788322792874982,-0.8653237600629708,-6.634290493810239
-9.849680804578078,-9.457271905959486,-5.110964181573268,-5.484003335887786,-18.768241363348572,-11.813153057683426,6.292122303684999,14.686408708605105,-3.615085621892273,-5.121383756605778,-11.72750822219358,-9.4379426273699,-2.6991553202918173,-12.431749468636541,-1.1277987162422902,6.655840096435853,0.2710085456139586,-9.850391597626555
-11.399385388354094,-3.465586835989138,-3.3707888142312283,-5.397682394576618,-19.24041021274017,-14.398288490840722,6.539121653787079,16.989610953507306,0.3551302117917161,-3.257503997141524,-8.799526744241458,-11.931542903623125,-1.0514534382325447,-14.06297160687493,-2.0545280535133905,7.0589870023414045,4.923530922182188,-16.09519910494965
-10.995714520295753,-0.9891865900100227,0.029881487691079345,-3.5538585106556564,-12.388319702180368,-12.00417855468688,4.637858050158568,16.07136717013865,3.351091393804705,-4.323505079405052,-4.993404505301896,-9.543059942431832,3.8203136763449086,-8.956682279852345,-5.2282991729118535,6.68139473985621,6.158522978576364,-13.259160057292558
-10.298847611310652,2.7571288045487865,0.40345756171918645,0.4380993802465438,-6.219928216159286,-8.53718438884287,6.05717843190586,14.763793925312257,3.712624426725229,-5.877973552552012,-1.1880668096367324,-3.346745929396766,5.47075259786161,-3.3630184009429356,0.38619038517406545,3.5699351701300506,5.343171640019346,-7.2017446383706565
1.6288842776131833,-1.9924439316245612,0.19136524887630468,0.9140426662378234,-5.71580386819579,-4.680960790597662,6.402497795607962,14.04350964857306,4.564783845521931,-9.971751824976106,7.401710508632374,-1.2528942681400397,6.243665714943538,-0.8953572607653142,-1.5199236133498846,6.220857944565908,4.723582905287096,0.3192031110143372
9.259902352053729,-11.429282147681146,0.5654797535551754,2.2685701788193113,-4.625874322611039,-3.755920581864068,5.283198290051796,11.859741717242898,5.028655570437083,-7.034411023578171,2.6115832334164395,0.05884235640666802,8.092223629338786,-3.702209376255411,-1.1808882162871552,5.552019066029851,4.983338352118718,-1.9269605749169005
2.926092041054395,-11.295384925342539,-1.2086333284577102,1.376634964453217,-4.805659337382246,-6.7386898225954575,3.187581528060889,10.263341456497226,5.69019032091999,-7.905989742881395,-4.425470250614735,-1.5600215757820082,5.1569768783765335,-6.217123090348818,-1.3311406163508601,4.297860652909796,5.438810627521,-7.104196457936503
-1.9426222247362972,1.2412931508674125,-1.32233980332856,2.6328362626558697,0.0925718423219819,-4.937777262270044,0.31097570230367566,9.6449774440676,6.647048779976433,-2.527769951478692,-3.357732912018613,-0.152378531086657,6.520109361657175,-4.729143074956445,0.7637160577503801,2.5560653819780597,3.062586057523702,-6.911598110529944
7.935213459583929,4.403047094380755,1.5915510398179895,3.0097852617952263,1.1819428530724174,-1.9665658341980514,5.05195897586475,13.032076051902322,13.368065970765315,6.658775893733277,-0.43530296607363317,-2.6519420429134533,9.056586558213668,0.4687194158005541,1.099695247102511,6.674410825530347,7.132125680230966,-0.7632194808800756
18.98517419023068,-2.591413820308626,-0.18193988885836454,2.7027987717052873,2.466399374759897,-4.6611427867598,6.570534502499287,10.951871702640855,18.82188478088492,3.149461017479891,-2.2012512627984515,-0.8554752828642167,8.957768840124345,-0.779977833800496,0.5556980621394343,6.594173724682264,9.932443217466389,-4.0889827975875175
11.187423916990994,-4.507510787044875,-1.4669699370530287,4.0556640801612875,-1.8158865802789197,-6.8691147855027905,2.5229286260585444,11.50999081278676,10.215340003621371,-4.071230905871211,1.500825505561096,1.6236726696758357,6.1260097575548915,-7.596351583166973,-0.7706356223615676,7.588895521042207,1.0141351495270947,0.8848224664008919
7.3938741883448955,-4.567977719491723,-1.3846369631634925,2.5761268587145105,-1.6061887494856575,-5.953765962694234,0.526456983397686,9.628263631838704,5.712768604407637,-7.288366538381246,6.666958928662325,-1.073974630352259,4.955917940350595,-6.601327005675305,-2.5863497427553446,6.826524711141151,2.740798141520591,-4.787402340307954
6.7256053541859515,-2.9681584033484594,-1.0091935614340806,-0.5639181002680786,-4.91246244679629,-4.0636085062434315,-0.49310386045735477,10.580239601098198,12.0525504776172,-3.865214731873718,-1.7421434295308518,-4.260857027145464,6.71705334935292,-3.8497186871295783,-7.625877447988357,5.869607573370366,6.518524749740272,-11.242221409634825
12.405322485269002,-7.130069194359979,-2.5867851295043507,-7.024650275835601,-5.3869748352480356,-6.862832006191181,-2.293581718612319,8.213511290434088,15.367280853120795,-2.200368664771856,-8.29655846352681,-9.206535839321646,7.79608793755136,-6.861206414270591,-8.85787711860381,1.593118325709435,0.7260171194389917,-10.959983574279352
14.471935350649307,-12.659139675592549,-9.43779211723457,-5.575427255990936,-3.518034536341018,-11.031112686478409,-1.2616288911435753,6.23910173853157,9.895145879031464,-2.6844865042604655,-10.847815100117614,-9.56326797289112,5.165639082899625,-8.702123507423341,-6.672994609172087,0.6378046582678127,0.4025400059196311,-12.339248184188204
8.628502248593316,-8.910703830894992,-3.8861807447983376,-5.8843628259373215,-3.016655244935606,-6.998030099717749,-1.4012016010948942,2.8015415029792354,7.941012100196678,-2.0948897026586737,-11.153751237092118,-4.745116313552593,4.09923104571405,-7.614662565004154,-7.1260239050655905,2.0271099815897062,-0.7996873542210183,-9.22757018225438
3.17592954286044,-1.9395689646628238,-1.4595487700525656,-2.287305377621039,-1.5390704170024456,-3.455159874473474,0.9010474694025112,1.8071665101263878,8.430634120333645,-1.0175512387929961,-6.772921305076344,-3.150655146010047,7.819574501758536,-6.13795578031835,-5.920037720520519,1.952402687135912,2.9787713846936414,-11.683688249361335
-0.323260896073688,5.324505557431809,-1.181335749199835,0.8211496520178669,-3.675212709853185,-0.5001951511430862,5.742786805272836,0.9122160130343655,9.996791769827555,-0.8197056650440828,-1.7092899379300082,-2.826737602747439,5.779637714682702,-3.490771190352497,-1.4925246596447144,1.6832530926275977,4.413557261579291,-5.840193611001089
0.6700297704363863,3.8969807450788165,-2.1726388526466485,0.2182998939327827,-3.175005279310031,-2.43011051560845,3.6512261718263517,1.9722107821986672,4.436221507677677,-5.212372941345529,3.3535420440132224,0.035280946385484846,2.1787066469233123,-3.677105088441375,-3.0233238915858203,4.540043492212115,0.47725151395598164,-2.537084632366306
2.4448045704182046,-3.780726522656452,0.5470699681104052,0.10343141222678143,0.8404533542016912,-7.487099261062079,1.071786793269693,4.0105958119396234,-0.829103353477282,-7.945483169880467,6.169450628594038,1.9197153227918338,1.411381670592502,-6.3063544336446204,-1.234960833874467,4.565670295276735,-3.751972535730072,1.6436714892048077
10.27457817491727,-10.970258518188476,-2.397368898992043,-0.3047142973012922,-3.250125728085793,-10.983621049564738,1.4224997686558272,5.953157041116073,4.552521129215416,-4.526805404542673,-2.6367025749364834,-0.7867766893719423,1.3291934905169955,-8.351156156760482,-2.572856186648818,2.736728885014415,-3.7818883311845175,-4.235579145645235
11.854471572702451,-7.222263096937815,-4.560561017199048,-2.17802652446803,-5.192697318496373,-11.454839518842032,0.11346132833249456,6.725679090668576,9.936383190528803,-1.9877216585535065,-7.8303047894375775,-2.224735808511594,2.5180884507774075,-9.420905112447011,-5.962783765796512,3.0572040091290367,-3.7141507523362645,-8.846524596187136
0.7390696970437889,2.580346984241192,-2.0362130408905497,-0.6336144994135448,-4.010701191769206,-8.70546745904154,-2.4646877236117346,4.570341080910361,8.291105868744024,-1.3048336743064939,-7.262879761911872,0.9261967083835301,1.462386718814206,-8.441390900485683,-7.400784276240315,3.7692731643994484,-2.8651856954102515,-7.110947212716254
-6.176843094538434,7.109248427207492,-0.19551677947109392,-0.06607259840769619,-4.587041205383235,-7.520760919520579,-1.9173394065625802,6.420859684236688,6.452709717921127,0.5492245379249736,-5.231361432866632,-1.099756868261145,1.8730801357540097,-9.025973561071112,-5.32434100711628,4.872952585202971,-1.3326812406179132,-4.790637434536819
-1.9595724114365618,4.606576781990768,-1.7729048952830335,3.430912876954735,-1.0622694819542593,-6.826510037075367,-4.006290879405047,7.492021436727955,9.304058904594529,1.3283013904049659,-5.935025346845835,-0.3923225959999215,5.41034689784552,-5.998815425153114,-7.350763889984387,3.5361834555840854,3.1294600518242586,-6.573149505760962
6.261861080941399,-0.6307521914974898,-0.8112710103204047,-0.20140105618924475,5.098731658230488,-9.747786255876832,-5.606485109666442,6.221316981315585,11.180980076469723,-5.510694877342125,-0.3893514749804896,-0.6624969012852131,6.214718103800017,-5.610033314541411,-6.155727674473294,1.5168201592158348,1.634353021595456,-6.696658436141652
10.186543356186501,-6.649608168062812,-3.7560415718846953,1.341865265493552,2.958279406735058,-10.522805136315394,-5.936650986295647,3.9759678506425082,10.813896606412543,-5.905072459939436,-1.48515292721176,-2.3009123376013294,6.434658432671838,-7.469016609297466,-8.868251701425887,0.3774010128159082,-0.44685763669830436,-8.9697967450939
4.150318889139005,-4.465503196031214,-4.943083073718457,-0.24019151352783774,-3.9679632065269583,-12.960239230525513,-5.778041396213939,8.080316416030373,11.132513116918709,-4.0541365585709,-7.757554364074839,-4.8192810884841375,5.679530205638163,-12.94299289431903,-10.214821357542776,2.8523566289849938,-3.6024918230638834,-11.927677977582576
4.266707720764052,-3.551261865721452,-6.911512001348863,0.5212667574898833,-3.2774785084836306,-12.958482588860011,-4.642358759024506,7.108417638361448,9.011752772495722,-2.301694910220301,-8.464194487946113,-3.9206627632184654,8.44158163454881,-13.242783658640484,-9.414177113861417,0.4454769199432995,-2.2660897159852462,-10.882709265690792
7.605970079051207,-9.082767850022691,-3.7042212655474698,-1.5496153027445352,-0.5367727282130432,-12.177734373015397,-7.3148236162501465,7.603349367653263,5.818793223921163,-0.6477690857345162,-5.069928878467633,-6.83172959905538,8.177735178656802,-10.126245203032395,-11.34920740372489,0.8717360782715908,-3.078409159323205,-5.444237339924454
12.410258588043694,-12.661478585188974,-0.10645500787269935,-0.3003950798548628,-0.8240631180225231,-10.227379641205376,-4.224968864587329,4.975205790489967,5.655227297181315,1.3959084479661321,-2.555291126245732,-5.153914703847514,4.595007550039954,-6.816098807561974,-9.574501836974928,1.4943872611676698,1.0895332332865666,-4.010804598329735
17.410014088590493,-14.775705498147616,-2.2706655465324572,4.854878988620787,-0.23305456908570088,-7.2050905907102365,-1.4275659809200472,6.060035412423889,10.66949148014089,2.6574240447605297,-3.65468617204776,-4.453707320395475,5.506006778636188,-3.9959633887869295,-5.652583747966485,1.3368646298206799,5.45247644012045,-0.332291497821549
12.253507108355475,-13.667631627956254,-3.263167835810811,4.736384583720313,1.0409232019137526,-8.482055826118605,0.10081588361106408,5.486667956158831,9.435594861019304,-0.08594808144094035,-6.3172890717528505,-2.973265479589857,6.906753227815614,-4.204953810998034,-6.71246669474439,2.1570184934869787,3.5649777639310183,-2.514265401503944
9.05028793279904,-7.4817819086261,1.1153066309245925,2.3715170330255213,2.4119097698748195,-7.808191318945676,0.750815773978416,5.5988933630086235,11.914590114789947,0.7830758415586585,-4.195333706572837,-3.4470025617258075,8.308944801457555,-2.8531688000394535,-6.113421916109711,1.6110735026025078,4.8998060751526005,-2.7440811625992874
7.214400164154887,-0.6127762806288075,-1.537789279417542,4.205692695482207,1.340790150900581,-5.476480079024864,3.6474892884108523,3.7599555892355285,13.711840630990757,3.2136637152634853,-3.929532798093244,-3.7264442486433413,7.759412203504385,-0.7218816888292245,-3.953103766964263,0.18732820180550913,2.327914364521989,-1.8029739268444356
4.402047628583858,-3.5100142154896314,0.301143816723481,1.5473783331086066,-1.5865027184519573,-3.8307161154103024,0.9782249540918003,4.559770138990143,11.116312515997356,-5.782683050896678,1.5114851381922145,-4.104559040439643,8.285529795251023,-2.7916475442767528,-2.8682668999118883,-2.504839091848779,1.70873502485157,-3.401910232458987
3.054662979195291,-5.724138444014615,-1.082869323278541,4.260011457757298,-1.4870951072346164,-5.01937642200027,2.2158311226543073,5.166263060174513,5.495172922645886,-3.0610987920698554,0.11583283405813471,-2.042240295047748,9.594307693317687,-2.812380234546736,-5.105034069854048,-0.8012707353293953,0.6984502613866397,-1.2907663403415803
6.297282625510208,-5.594987966127001,-1.6858749458184032,4.433320999021175,3.787470212302132,-9.921385846132857,0.32895787788361014,5.970064637306165,5.930549059836471,-3.563236093049671,1.844615114021412,-0.7621873682951694,11.197439465644814,-3.811477867931524,-7.636009136826344,0.41515442046537343,-0.4099987316898641,1.014808228841808
10.71187397970121,-11.228175460797472,-3.363383527801068,4.704071944773945,2.4205938411715096,-12.579625912029309,-0.7760779891299363,3.5531521202861454,7.5395099097290625,-5.238300349959265,1.5219876295730845,-2.9988102535390913,10.165174121764633,-5.593632065331855,-11.24244690969497,-0.711053086446384,-3.0815100560487534,-1.1727282026010162
5.849046773588943,-5.631274066159246,0.2323448013655307,3.1191156207183606,-0.4118766298059753,-9.283104666542151,0.36559661740100896,4.849222064377235,11.68921846627426,-1.0549518080603937,-1.7309528660814282,-5.3340806626915285,5.813887655001267,-2.201726727578307,-7.623431459855983,-0.4688920821440741,1.277765469164188,-1.5055919817956998
-0.08796126577750307,-0.8162054275650839,3.8277790092700776,5.733238170261718,2.5167191315572417,-3.4498437008116714,3.461015275496118,7.123853622667149,11.836559446494585,3.615616692014708,-3.3242756490676353,-3.47105000332495,7.616360011372514,2.3602657904930435,-0.5876057449857353,0.2627242720215932,7.101304774412131,-2.229879923147168
-3.5834842888282648,1.361514085479981,4.786147218227816,8.249505411320575,1.8312258254593239,0.42790172160052187,8.314869104739705,5.103523598216159,7.004907462897591,1.4490579070075853,2.1132124358377755,0.2465046203848571,7.955265610477843,7.506395066660723,-0.3890226962837602,0.6048822691532947,9.115558101869187,0.4630916823657607
-2.78203835768836,-3.0044441517714335,5.060591505631358,4.3201707520707195,2.707491617913779,-0.5795983699515794,5.552021450149677,2.206246583167408,0.8075496574166134,-3.6483348925556824,4.718097579666296,1.7169674036429896,6.244635181180364,5.228723443269331,-1.1682072630065647,-0.41899008017161554,4.5860770506551285,1.299837315297534
1.8280743946305464,-1.9998545882235392,5.041730273341371,3.7110148619088457,6.219739768121256,0.46135923920058985,6.598434102669854,0.2875122684450435,1.8383166992600177,-3.668642954775577,8.006076857128505,2.4052143399724706,4.730572958637203,3.7304991286228493,2.44602774659408,2.6599455445747093,2.594999913123996,4.9679615242601205
-0.8861421259934854,-0.8005959383576791,9.612438135346414,3.882943297427843,3.67641969484207,2.5742022239720974,4.813386722954858,-1.336291932416506,3.1634573944856132,-5.3502658954887075,9.926356627245315,4.069095242109343,4.877920323684553,-0.9922461947220489,2.73873316977423,3.103309410607787,-3.791404240335127,7.268215048646639
0.012964993023571125,1.5698909559049792,5.100619245186632,2.6874927279759135,-0.03959313526781516,-2.248997639073295,3.4195905214592752,-3.0558063934760327,4.294630256848278,-1.4665461001613522,2.471021561340883,4.071862203992071,3.4639462231707903,-7.5723041553333355,-2.73152138214723,4.915072667943848,-6.858205132359821,1.0716169370935669
5.306643446329741,4.623299379203457,4.88537194232269,0.8082744475562545,2.786651373025217,-4.633089456787671,6.030387466599734,-4.285095069528003,10.40764162693068,2.3183527345155674,-0.7854826478739823,3.683077501769006,3.8089873129787755,-5.5602955775388745,-2.148135448389527,3.7982980262508237,-3.5780438004943544,-0.24268784840012625
6.400997653023857,6.211141247272414,5.353347952449344,4.3977333677460315,8.541805620070436,3.234555173834055,9.618392997529423,-3.3639877303479793,9.099903560152342,6.395047183526106,3.7702006400892314,3.098068836653461,8.25680199540242,3.8718885989915126,2.2427776237566395,3.6592978429273106,3.7052632470388627,8.696511418633497
5.151510026523646,3.208351273117513,5.527958159684396,7.596412542641857,4.335036851576181,11.783488243225417,11.449195577949036,0.09813430103842613,6.133166759885113,8.712710697227767,3.3449281564802114,3.293426388304208,6.846272592100691,10.470188552068148,7.609158800788171,2.74023502882409,9.522852079064567,6.111574134306766
-4.008325448393578,2.6462693288147,4.725586848728208,4.154224255865116,1.8852629849386695,7.732268928810658,9.27667218180445,0.5347666461096523,2.4839516887186672,7.415832581372365,-1.182359321212739,-1.1996699639335482,6.804042896234423,9.54703658669192,2.4274109142182407,0.650480344511065,8.894147750874595,2.354256601837144
2.8476225802465684,0.1302798617023848,3.7274845931685254,2.372084273181277,-1.053654746465492,5.534255900566478,5.83524434694382,3.805359639496255,8.308605453861512,4.3598966394974985,-2.0966787858311338,-1.4943519992983871,3.4425116426382445,6.180639950481418,2.713420235291439,1.7846333121224252,3.479301957856624,1.6238778712856465
6.773737412737275,2.20343437384268,-1.2750116254061894,1.4687387413075195,-1.6496524662009702,0.30657655632203706,5.617172759829744,0.14412433429104432,9.251381506222605,5.990300833024358,-4.476210775009736,-1.594572661824755,-0.6992503920144859,2.324159126198067,4.365579271197449,-1.5722668211464095,2.36045498276484,3.1392125964200934
3.863694224484642,10.81887072818337,-1.492716144353103,-3.048060091131834,-0.8793180069635975,-2.2866045120571235,5.59507195351406,1.5629469991659963,7.851321507622222,4.982702135456295,-1.8755220831948312,-0.8167128427689532,-0.2500986613519114,-2.80366121524008,4.942462800851756,2.1033935093926774,-0.028913548115804488,3.189303553638024
-1.1949507581658914,9.76538725809661,-5.519520833475472,-2.584422555853954,0.0854454750437943,-6.151580002604964,1.4720056892401736,3.5695550082047216,3.3271031718825235,-0.030119957981025847,-2.6931556061286166,-0.13733449723945812,-0.7765561740652949,-7.835605214182812,1.7096730577385166,5.877914500386821,-8.083430733934694,3.825000490957823
1.3635611227849598,1.2890953092714756,-7.1053408400656,-6.4178251749651665,-0.22023823969834688,-9.725807936975572,-6.654364101581409,4.406091672906078,0.17092144848185775,-0.06366512143089831,-7.124403675673861,-3.853362234418842,-1.888024414813307,-12.185718032419674,-4.1608774577113525,6.040301299589051,-13.404559293870022,0.45642710762707983
0.9921785472268523,9.70675561609689,-5.761897749592314,-6.2473509769415765,3.3794811160133023,-12.520980265409218,-9.311232555640832,7.9788484714932375,-0.054761596311074356,8.886022603243768,-7.258965808261064,-2.882609761948748,-0.6548042140483492,-11.0687611127068,-8.46988565236388,9.719567745570018,-9.839889520133129,3.240026122411966
-4.164610935139498,9.041392851577264,2.710081215439415,-3.8308299430757966,3.8532364494808586,-11.997975199260011,-10.404905315477011,8.428342132875796,-0.377398308145537,6.799095483426351,-2.999160356733654,0.3334963701876772,1.3605469968454287,-7.316798743663873,-9.752464521519887,5.587414335953064,-5.78801450848687,4.558531785837793
-3.950417713314689,6.714978920664869,-0.5373575959319504,-1.6096959423296258,4.716696760868102,-9.426321638243907,-8.275196928898042,7.2194191879741005,0.8631299226220257,4.710867538832283,-1.8646090404002522,-3.0918807520316043,3.5720486680179837,-4.0548675594700185,-6.73904191898749,1.45645819213554,0.5088781219188321,0.7986459101994567
-1.8809357449279496,8.684619726617242,2.953089148577184,-5.44340344447205,2.161200698718843,-5.782574105839088,-3.2150768276736135,6.402871928613826,3.3737863856150483,7.406557814326993,-2.1951056526034587,-4.271868861609936,1.292094678611825,0.5725414155171347,-1.8710392171481307,-0.42717518316438063,4.167874947900177,1.0425767215527362
-3.6203291937232374,11.043989516719742,3.220322656702522,-7.714638466249825,0.48367950354542255,-1.6526550326686849,0.2832026594622288,5.685706233444004,2.27162012092446,5.218040215452798,-1.2562085045741618,-3.3041073184193173,0.1847989122199971,2.170842637143136,2.3124650615582008,0.13182675285887946,3.919399478978736,-0.08081291869286034
0.4995030807976435,7.347661392186205,0.36199163217740393,-6.079604669154957,0.07475497310767498,-0.06392924592852545,3.489195809706091,1.161590977768137,1.6581918529107513,2.1492726769567074,-1.586993547384358,-0.09091954654188283,-3.4608682159036412,0.5447342218197226,5.030232289468895,2.5475142192664433,0.447030596966274,-0.6183294822081806
7.451156128461874,3.5527415507752362,-1.3249721273845905,-6.6907287762111265,-0.7257634720866766,-0.43042410743333903,1.9106501777354234,-1.2123737943387383,2.4123565277733663,0.44637423061835657,-1.6249113319783277,1.7543773491632466,-2.2229542941972387,-4.696400374468514,3.547869590151479,2.9135738823898274,-4.00312838229032,2.5551135783170587
-0.8320668302317209,2.1006576473526257,-1.2546306751662941,-8.278448922873421,-0.7459917787369938,-2.3614814063511655,-3.964141981228101,-2.9010768407346426,-4.743436180918895,-5.94544357333117,0.8761920722475018,1.548198901019294,-3.621141496457037,-10.915786946362743,-0.7673902910393888,5.33162672680802,-10.798309913592071,1.7245937730107759
-13.021882616140754,0.8429236570570098,2.428504838668637,-9.573202902588012,-0.18125408358115902,-4.880495465738464,-4.271745397220086,-8.299139640573479,-13.266182939619831,-9.994831564628432,-0.9196989504536435,4.857056431634593,-6.2882579529455995,-12.742233774688966,-3.1302931854297773,4.528150325951807,-13.102495643062564,-3.2075075578885994
-13.590725022414144,5.931961579342658,-3.1663952090841083,-5.399118557828885,0.2848369509240871,-3.2022077459221103,-5.652882914386361,-11.351805961274373,-11.53467811465451,-9.35801164734691,1.0930344977715305,3.5753780541814533,-6.122715344785541,-6.464729948938328,-7.740096515745874,0.40548213881258466,-14.919675713730324,-0.5222224368466823
-2.5386082982827807,3.2073835836978617,2.664102460710724,-9.428267230735521,7.0976838704397585,-1.623528571304469,-5.861423047391399,-9.422340925139363,-1.4044843442563053,-2.0818362239173402,-3.339643573278487,0.7305746567786784,-0.09716073590047625,-0.5794813202509239,-5.709920041915127,-3.423046575326344,-10.488065576669038,-1.9384404578916974
11.540572423570646,-6.256590572796221,-0.4904771700849706,-3.5939543711877526,5.60861753173481,-0.5350577210341783,0.08318239646898795,-3.3896887179154565,8.139820623117927,0.9936788156174272,-5.623825063348631,-2.3101240659485613,4.366380406155681,2.8627178452606508,-2.0202821572574217,-3.441762604901106,-2.151472419363444,2.5049671386676144
8.724624424443604,-12.791859867396695,1.041942496657444,1.1661660952176982,0.993490224461439,-1.4992869459835614,3.8800289401650447,3.1327893620867306,3.3284297433287464,-1.2057079273041649,-1.3648844691416377,-2.6169641980242444,2.48264142057704,6.596303263022479,1.7663200972049369,-4.338243200070075,1.7891751318888467,0.3078489044060808
3.369222065421868,-13.175733985651995,-0.6489221971353564,1.7270597966087429,-2.939053934591433,0.7573346924420612,5.919750973158478,5.457496514627573,-0.6041151846850132,0.10919438657350833,-3.062985117528312,-5.1704684051800935,0.7946533572511756,9.156428515740037,2.3295507855871946,-3.085104412935861,2.11511900605153,3.0915152098702885
4.458864312832474,-7.212912410199967,0.39404451143385577,-0.5440512535695248,-3.6499212562434993,1.8402427083848938,6.788298364222737,5.732877416376305,0.3460875949629827,2.2039637497938522,-0.7570099054186294,-4.697096278904374,-0.6976214367769638,5.66022695355956,7.384399015095214,-1.6355072991303135,5.857697235132943,3.141043863780874
-0.11602140093057223,-3.3019756042839257,-0.516734961789773,-1.5455279829847195,-4.45948226007242,0.9682098198722482,2.6770226803991735,3.8612484158066334,0.4171659488216166,2.0512054299884883,-5.579913418159991,-2.3687179107019523,-3.752060018242256,-0.0836285485147652,7.262776535550246,-0.3800893127792877,2.176882151680555,-2.2779426110756464
0.6798771298111546,-2.8101465872568423,-1.4281115365922878,-2.937537656425877,-3.805220254064827,-2.7376482069437325,-1.2382124075135863,1.69808038778742,2.343471312026355,-1.7162932214056348,-4.152557301732565,-2.9705394394146944,-4.169417344287103,-7.196196685661552,1.9647117385071562,3.3179018107163794,-2.4819331489458594,-5.548101288526189
2.9402382548953665,-1.440499295930099,-0.6799090114512409,-5.696643030663012,0.9496168043792208,-1.757649196069785,-6.129296319356228,-2.319176944485772,-2.468942507781123,-0.6999703314787427,1.4742740027949042,-3.1821742467465453,-4.879463418901192,-10.696910450948682,1.9396115600925423,4.380256654235746,-6.751557287512066,-0.5169554139735102
-2.807750452916702,-2.611068984093171,-3.8386236067211095,-6.1118350131603965,3.750242298260149,-1.3652742021778055,-7.992258221370717,-6.725684130060724,-11.774012266750404,-4.4702876990075175,3.8786204752470717,-3.0035985664428924,-6.1752092474709475,-8.144303482601009,2.1093025868722863,-0.12276411213702598,-10.534348722436778,-0.27060312805498754
-9.14211194036394,-0.07177447897514222,-2.9939830487642105,-2.0346280360791793,4.401334234935283,2.5411394703347625,-5.850517190297319,-9.763628683691168,-12.388007492725116,-4.62868241718969,1.5956443536939338,1.1785480519761808,-3.076147822341435,0.8522786178075519,-2.1160995777712808,-4.331703386399399,-5.627072683916145,-0.8050381538304422
-5.418163267587218,1.685114128091914,-3.3218518816866407,-2.3518608557985736,3.098201801668605,2.8326150672227985,-1.85253994688656,-6.452492851785264,-4.701623209049889,1.168629057957113,-2.8355246870889985,-3.038243038860834,-0.5628615547969305,9.554475777797704,-1.947368631240241,-9.418461521525538,3.966288888573742,2.567349840670164
1.1374125468123206,-13.25862870127695,-1.8925018517294365,-2.27828830477253,2.282282432103344,3.903789805889234,0.9742871727104243,-3.433030084800813,-3.16826858584223,-0.8480963215326225,-6.973414639979158,-5.302226763674552,3.610740018131805,10.247351061419023,-0.5095222834564188,-9.621239470175217,6.7221088830282945,-4.118457324435868
4.079194916283244,-12.285331509644635,-1.342695521865346,-5.329572830524444,0.6840196623333226,4.582810320526374,2.4346523466284893,-1.6818450054169807,-4.272328126838098,-1.9873208360794963,-3.7866396573456367,-4.832116325549802,2.9015508790630897,9.766971330144539,0.3419726460137493,-6.990857531131548,3.9099249731661185,-2.4051082677103346
8.876008085427838,-3.695915814218873,-4.504510559919874,-5.06028709808591,-0.9153301957176361,9.166657267863053,4.091083129673725,-4.616985814122062,-3.521608407411467,2.1455532077101642,0.4747334845753679,-3.483383671732641,-1.7138888384792121,11.629040777534453,3.1462478963321,-5.335975447669977,9.494781887860361,-0.6911303302645266
6.250358095383914,-2.725002543348853,-7.959928885727287,0.5803982004726804,-1.7345105915967025,9.74509433300336,7.213133914377817,-4.718833865238089,-5.115454303239878,2.761329128567805,0.4395576860914576,-1.939607644700591,-4.766782766071871,5.188891755833722,9.661173521903036,0.421601278903464,5.605301918315634,3.1719848775447317
-1.7469505750388974,-3.0248519225380615,-4.091649211042237,-1.7866102995569548,1.6444942532074793,9.052579394171309,1.4490880793818195,-8.628142858474325,-10.323477869612836,-2.4837783573807193,1.7720104781423842,0.38518374061344307,-6.940771947077298,-3.401011615917617,9.828033240899398,4.031769190405461,-3.656900253663515,6.742831734441201
-10.03772289602992,5.7562432926722735,-4.911575631351781,-5.032280275027712,1.9950066921421894,4.647710594120106,-1.9704103580508012,-12.047999600062354,-13.579248692770653,-5.093544826115606,5.74167105977215,-1.2942130506845206,-7.942919778366653,-8.671808950942605,7.45551007693596,1.7835259805478083,-4.3267773199344415,2.0135131867511085
-10.614031001146254,8.383662546059234,-10.517367560110667,-6.617492941783338,-1.0736088558141956,-0.9303687097237687,-4.90085448525364,-10.29085991590346,-13.027329783274496,-2.821840665758384,-0.3469382559072345,-3.1691202521023176,-6.210738762644396,-8.475002591874581,-0.7767277841501078,-1.7332228279989006,-3.533352956393028,-0.27358197660721706
-8.261110324262102,4.173788669235039,-11.43622549245077,-8.88601628687324,-3.1667584432519242,-4.263595053863408,-5.77971640427623,-7.067745244000932,-13.45300974060886,-6.703988362637761,-1.161523802012059,-3.0910415291537254,-6.138863252763958,-6.814532088518243,-3.5403509551130687,-3.784068848968447,-8.698623159834744,-1.3879672867551713
-10.205639120808474,0.9392279851728502,-10.207251577777491,-9.005757847041359,-2.624264579152551,-7.1097647792582475,-8.220328357985355,-2.2810250990961825,-11.633641695346878,-7.364842150170801,-4.709991890494184,-4.7709448245038795,-1.2819181233351886,-3.202080537654189,-8.745604686181165,-7.005779468291335,-8.884927868596034,-0.7436595135273564
-11.076446464272324,-6.593550269338463,-8.099996964698724,-4.339940430553952,-1.7899168449903302,-9.76180772380356,-8.023403286352668,-0.5206404486668816,-10.791988815474896,-7.441157732765426,-3.179695035886654,-8.6970925447977,-0.9174240653182502,-0.37203607044019815,-8.189206945314934,-10.61710122270794,-4.385246212952834,-3.9071133751151472
-10.189932230762363,-2.2133739406689976,-6.18869694851119,-2.1152184067504205,-0.7613765205403098,-9.875894363396977,-11.341374488343668,2.2173489606331924,-5.459274553380096,-3.124279398634824,-4.871513000433651,-7.252154574305562,0.8140483200242385,-2.5236525476131257,-10.36734911613435,-7.684343067890765,-2.230940458487609,-7.460271834989449
-2.858528208797879,4.411628068278092,-5.840559679931528,-4.480043482106914,1.43793053930123,-1.0065697340021011,-11.72882668699681,-0.5124947101804729,-4.327093809331001,4.902193084241553,-2.3634295291867113,-6.979173048343188,0.10381254744007877,-1.8442814388764837,-3.8540434585336554,-6.215448241872712,2.265556888997285,-2.418587025688342
0.663700329541907,-0.4882981573098082,-8.520450694668327,-4.207724152612791,-0.4655166013881569,1.025656705068437,-15.728823945494607,-2.6554184461078005,-4.368111767705785,-0.1588666099081486,-3.2727205149010867,-4.753073782595085,-4.024742993201712,-6.048854561153839,-4.665127090422303,-3.0853776431072975,-3.3959479898041756,-2.1611339482315497
-5.482712809752661,-3.045766005617721,-9.345482075699557,-9.696807198735025,-6.374062878689803,-3.095566120889151,-16.602977571856428,-6.652892494383849,-8.609772576840832,-7.662759264767161,-2.8141290409676447,-8.48410720729039,-9.325524055166019,-11.133374599480554,-9.48020447725295,-2.78639593388117,-9.840314164917299,-7.176166302617322
-14.461726817790238,1.4267836228299875,-9.878176424483936,-6.103297130539812,-7.889145020502793,-2.5301840389826302,-15.132544773333658,-8.989264810536566,-14.708343728648165,-9.894517307365522,-0.2063657474099969,-4.207189966621372,-10.525045994347666,-9.77348077942378,-10.388966210490581,-3.85364565905354,-11.696367087137556,-6.233009391022304
-18.656038167679476,5.99563880509872,-5.333302917527581,-5.829707861085412,-6.377973468547052,-2.1610387939431015,-8.387788548385304,-9.07861539835158,-18.659910161231196,-11.737021084562603,3.8669923894658593,2.706528715073131,-10.455416125304945,-3.8246396266792733,-7.977326205203912,-3.7480342519973058,-13.358705250443325,-0.308206474289504
-16.014833713127473,16.910882584617337,-4.500056311314721,1.8663311822208444,-1.5475767794045623,2.99245983945607,1.6781411699969375,-8.874125337916334,-12.456588474989758,-7.623772194228257,8.91768361584626,9.42500079570667,-6.3822500836376275,5.443629023313251,-1.1710167463101313,-3.6414633011902717,-8.772547979183592,4.055207534057822
-13.374153845329134,12.687799847144966,2.582655025344647,2.1408627040571755,4.746546511565023,4.6294496143432635,5.201817556253378,-8.766451690076174,-6.93843810733612,-2.1446766603134106,5.472933803937663,7.647344694868433,2.670997679844013,9.14450182878327,-0.4193834297452259,-5.584754086751965,-4.578619839163562,4.025191356786252
-14.152017230908719,2.3108904392308265,0.6802260292532525,2.9041828848707683,6.254299867597467,-4.086065456533945,-2.504325944426301,-10.513459692785043,-8.941550125457477,-5.065500193458848,0.17349564498778303,5.576836796313558,2.348608034340307,-0.6322669516208772,-6.796628796552918,-5.769263512268245,-8.003590860899317,-2.74200809606539
-2.332551427933933,-3.9657951354370895,-2.492379188970469,-5.218832101282242,3.561628866826795,-7.138170039488698,-9.037751334949693,-10.208865465271092,-7.918936815251864,-4.276674181802207,-2.0977178177197007,0.2837709610888912,-3.0525092491384127,-6.503568189355349,-8.388475972474929,-4.878604561866434,-9.476998797362743,-4.33211439179826
3.0409881148862343,-2.4312749273834418,-6.15389584787045,-9.532656835895377,-0.5970503235667192,-8.042496729214692,-12.054667840848047,-8.438640978688618,-9.046505578556658,-0.8524244112597015,-0.46176123277948133,-4.716148273728384,-9.040128370906455,-9.250632272276047,-7.733993672532097,-3.1081015565544434,-7.826946083975455,-2.893566239296949
-3.988516057173139,4.375337679765298,-9.620716706139302,-11.306822792542857,-3.096690268266013,-11.58422867243421,-16.8285884233956,-5.886415748177244,-9.19925485105424,-0.2615744643511482,-1.9499665665748125,-9.129921994171038,-12.586889072107986,-16.19775805267296,-6.395673285794832,-2.215602701646789,-9.401180183213228,-2.039669035279249
-1.9363556094180843,7.76249171027089,-10.060764060775737,-9.076444799336816,-2.179451584172338,-11.513224341297441,-18.085990132031057,-3.333476833180579,-7.595967771334132,-1.7228520570634727,0.5667061476947144,-4.55895907861815,-14.669397866298675,-18.165086200197166,-5.740690824684996,3.463032000551377,-8.047256863797404,-3.1376007637228938
0.798910115289301,9.976303121573238,-6.985745816071731,-8.505652820800119,-0.2867774022059755,-4.606732146101878,-12.311189382698101,-2.1470575401817893,-4.041372854192268,-1.62290995615245,0.6428705899655267,0.30522682030853776,-11.96732011731778,-9.390778218066567,-0.3978383654094504,2.404180229659424,-5.718323379517253,-1.011471455093644
-1.935149403553638,15.118384973121648,-4.790256751519269,-3.4419904007859317,0.8234936416001504,3.9594338223115795,-7.2191427753245145,-0.7646587810433907,-2.051191672637356,-2.30552260437755,4.23567300949102,5.072029684725314,-8.679966588169421,4.070417874287642,1.3320082319555562,0.0766663895248012,-0.36355870333131524,-0.4464812957187687
-5.841585698495535,13.715924487739699,-2.8883467938635383,1.134016373117678,-0.21584581265880076,10.181352289717818,0.5105176306737311,-1.4324331467949292,-4.65285603095103,-1.426892458402801,5.485672649710802,6.714084208079926,-4.123760438115882,11.57384027815002,2.3786130269173364,-0.7851019059575588,2.938844083968382,4.02623155460935
-16.096250308917128,12.214320579122814,2.7239551130910673,6.1013056205325285,-0.8656932022654273,7.223027415632153,0.5260760315862711,1.4160861641536586,-7.940097115666844,0.7200194874002896,6.736678456406015,5.426730175628412,-2.4003534935485695,11.654654740302806,1.6677725045933904,-2.622577342183571,0.5755589121621254,5.668310704146605
-17.269210825555646,10.027614927475724,5.11295317948553,7.162954998695104,2.8779204561111422,0.3580229978031455,-0.14110578762664527,0.5542021716827259,-7.420698605700501,2.572702049181564,4.570692218294678,5.311616618263578,-0.09175098942717863,8.414518133321257,-2.558321291800734,-2.115406014064313,-1.300965380765244,5.358702751022735
-15.805867859921285,9.30426600447333,4.6692821464288805,5.0025866431655786,2.714089208337134,-4.358835419519616,-1.7839967402876424,0.474146883678511,-1.141544358992606,5.2054034453039435,-0.03568647702949068,-0.8579056751967026,3.9739144167661173,0.9745424875281801,-4.830803841717765,-3.072249130308263,-1.7141393040055855,-0.8088757401374496
-7.409269849603369,2.6222738294350667,7.057094714436585,4.503105213845295,-1.4548424063814314,-7.318133350500974,-1.8634914955619437,3.031393490532558,5.721467797544724,6.07903591377662,-2.2972067013763486,-2.730093101892729,4.816073038902939,-6.270642325604384,-5.833248578304072,-0.31725589684520417,-1.8358427837041944,-2.9709676367463174
0.9868953957127307,0.7239781846075752,0.6551235435085854,1.269929724109557,-3.378776416244088,-10.961269095905683,-7.020312547688079,3.9289777152325724,10.33622685715434,6.853794910274029,-9.831151065753716,-3.722943853797453,-0.2020584462220203,-14.297582298472864,-4.686705449851162,1.7549658500029843,-3.912190035652918,-4.4479115408728
-0.3831336712626525,-0.003968833631101898,2.455819091556494,-1.278901965507126,-1.6905015307666669,-8.647471402428723,-8.660575213800628,-0.5441181216477928,1.179083993072787,4.404647003235937,-4.66847482304282,-0.12544155217147246,-9.420322196211062,-13.53578767447523,1.147956787112018,2.2654868149937943,-7.650193194735377,2.3776200008743045
4.691840986422768,-8.936721664198833,0.4472829065636814,1.7395137138251533,-4.10497596482046,-1.4509308031740082,-1.9013892541690338,-3.258902391533603,-1.5348430277515863,-2.1473128470883887,-2.4343964094861685,4.058468226877798,-12.97530959733156,-6.914959651747965,7.08085392120543,2.0932169142414065,-8.948211708330634,2.8569888256694105
0.09830610733084733,-7.7146363951291566,0.684298348256811,4.270413012188064,-5.0557049453303655,1.8392003440714193,5.2493135203721,-2.066928064174372,-3.3720787892457107,-3.8175575676988056,-1.0780838901958643,5.606101319725901,-11.160016410916102,2.3422271011471762,7.838497100749747,0.9451730640234239,-5.657759020710373,3.8262587119513927
-6.155789087802756,11.181921899677137,5.412996772161939,8.755255119432402,1.0238066307244988,9.230900592093603,6.639097974049614,0.7856537293793693,1.6244665046125277,3.6908687371954896,4.9669727013040985,8.912076760295635,-5.146357461919273,13.649856614302465,12.503084780806025,-3.3271250068756597,4.857940912903194,5.480766194820665
-6.843756651020649,14.451652955215957,13.168515245288386,10.213510493957271,6.320943797513455,10.47015065433249,10.47121634830154,2.564403298279908,8.18124357529709,10.514549983592522,4.763124614651996,7.531003869838454,5.16330364037217,19.781286267173087,4.668144713278495,0.21397947767108194,8.829164563535612,6.355665289054607
-6.653152302752816,6.196171183904923,10.962377311272261,13.625738579903096,3.8043538403075297,11.22114241397484,10.007286185144965,4.636506174160876,10.243442262484283,9.036198442089516,2.3143566874324417,2.5371373802603894,10.296145341417098,17.61149816839623,3.279306021832353,-1.5176609179891243,6.841876952858515,3.228269725766056
-5.193328668260552,6.728276083828268,9.927568118667267,12.351227210634162,-0.08054748652753929,9.823736732865239,18.724076743649206,4.169865195206488,11.522027457521471,9.119262191391405,2.796545966189165,0.3759071297063543,10.935751643251251,16.222691554156018,8.043622434421966,-2.5649344465666406,8.173582706247473,4.399505589129396
-5.491658691553273,-6.413322784950333,11.23598309208828,9.417379935403014,-3.5759156248692117,4.324820705475206,15.42985901048938,5.754371579052302,9.18489650007064,2.2675344806771065,-0.43101775072729853,-2.2730316790934113,10.695439328598358,7.704618456842172,2.5546199393696942,0.9784579454074223,0.32411111179524266,0.9825356944605923
-1.200371700348585,-10.083750952994341,10.200052999959086,4.628894299905372,-1.1152538197617974,-1.564570226569525,8.034909981888664,5.483693277336057,5.771123476821043,0.49293429992563054,-1.801827857056491,-0.9174052732291857,7.1337458641104465,-1.3996239965716852,1.4609852452851155,3.6436721001401904,-4.0110108891494844,0.985310876502822
5.825053344639887,-8.091669942388133,6.526806653343982,3.6499316604494028,2.2232413411525713,-2.375561912312281,4.058875115951411,-1.8180522558635386,2.159601935345613,-1.0874080967679576,1.4185470623025225,5.419380815104553,2.7897540341408495,-7.18369813235673,6.325267212191764,0.15717917502358802,-8.054467315678561,5.579739116213621
8.064989068303435,-12.351333398302724,4.708501852973668,1.8905900442091252,-1.9589895609991492,-4.4558674021148965,6.236170003453536,-0.7209642738074797,-2.626270590535585,-10.286094354026636,6.300388749714639,8.924723761970817,-2.531869530209182,-4.960004847147184,6.893427448120295,-0.30120430416002175,-10.927316433893049,6.269611057834154
-3.4650575179408554,-9.483639941430752,5.526401985598865,11.069809451520536,-2.3336421027803604,-0.28580132234634015,8.121382040754334,3.306101703679076,-7.121652007835727,-13.919311683808573,9.035058524215781,15.6534191451162,-0.4325764935822445,3.2206703796225877,5.606933059641053,0.4130133736977395,-5.109889529048022,5.789356380353848
-4.057658590677003,-3.004276889912415,9.371139178765182,13.316233976237195,-0.07260226362451627,3.6892641534932444,13.91379165874778,4.8919480201872405,-7.224940176947865,-3.8814494859160806,13.52887839689501,13.202948940321962,-0.28752665178204007,11.987178368336506,10.76671481891554,-0.04396496659334992,4.026661049548606,8.533585246587787
-0.3535204709398245,-1.0188449858177153,11.555142765620245,15.75888853030686,-0.05874981287125047,11.47333430759354,21.074294560534405,4.134210590761219,-4.596338556858845,0.29596267496160156,15.582577152820846,14.659464568186252,2.786150835979912,17.53089322365928,12.802336288111343,3.503709298340734,8.083793624040878,11.76789167461472
0.32304675549278805,5.750133150481554,13.25030617348787,16.053996563715046,0.6376550268646428,16.42571997612625,24.52468453199461,6.306385682408867,-0.5054185706970085,4.86303891856101,18.02824005902275,12.991622236231077,3.90555337511175,21.804995138888938,16.401390304984467,5.782506398482996,14.385863275498803,13.636788214658251
-1.4419896538600696,14.665890992183645,13.480052227456298,13.713277912264388,0.1611231018801007,19.718350404904363,23.28837975900435,8.088088556301512,4.754826839670452,12.749530479988453,14.225150770221221,8.687723388105049,3.4612969193619394,25.297797606352923,16.876325851410364,5.620521445039274,15.901537862489207,15.507491699877333
-7.308790097116333,17.134540268249676,9.412306368156004,2.0960141009640854,-2.1719415240802373,18.030897963561095,18.24429479615235,3.4245178789832043,0.7350008416121314,10.478688523483711,7.59133934900238,2.5290419260964843,-2.15996933961353,17.755262088446237,15.106082279566618,6.826394086291638,7.064351906613323,11.715860521682597
-1.359121404655368,1.0465144819507235,3.293196201583341,-6.688227922847661,-6.0685570500619335,15.367364677244193,11.540894122493622,-0.9459635914373907,-7.193738407735749,1.7615267436518618,3.790963050348938,-2.06639003029235,-6.122217428427284,6.990031347153151,12.457886812883768,6.568037426703748,-3.824760424406591,11.051097452983381
12.207755442007183,-7.2306028122075485,-4.1936748279722424,-8.342501107488543,-0.20041670375285192,12.020757569534863,4.057090899038981,-5.414007988385147,-4.675719567539076,-4.417422936340918,2.042767447656783,-0.5086482494958515,-1.39410330301562,2.767902314003944,7.564549112982807,1.5250756525398927,-6.2187364055337016,7.263112121832237
15.618153873912721,-16.97430275477668,-7.872447545248637,-7.163740217568195,1.7604051466879542,7.698136329179707,2.6289197438287415,-9.296032159325215,-5.871330323153323,-10.499583931941554,0.4912621406553166,-0.5126845292986868,1.6726399296749346,0.7919567036047725,2.5745566431611064,-2.2477242159942046,-8.809087595980984,5.820741807701104
6.040021830066318,-15.000795779145038,-5.399337549720627,-0.9058121125816805,1.669415149176093,0.5440358942009089,1.0062774122040175,-4.388806810953975,-4.2375163534388385,-9.160605390045411,-1.742466700283237,-0.1253351676705119,4.542866316047081,0.47626971735235646,-0.558919459819049,-5.629294928877729,-7.787134305148773,-0.014394892097645773
0.17285552035803242,-12.833700080265354,-0.48534063587204335,2.325695207751227,-0.37571903820104213,-1.8242089244688735,1.6305988566032932,2.080974562934246,-2.606365291881331,-4.013803102093982,-2.705259269593931,-1.4950623245153452,8.095484060824255,1.91852009862684,-4.472622693286076,-4.029736009221631,-0.906720184722114,-3.2109391833915026
2.215960638373583,-19.945820800818165,-1.2360512074691243,8.194934415448873,-6.816430669587597,-2.140984701728451,5.087821301186264,7.5741901537395595,-4.298252373379595,-7.657004706407639,0.9232517734099774,0.2610283518565244,2.0764195949762527,1.8960227870662214,0.2086046343904817,-0.4764509327473063,-3.5000816249497837,2.774177867642331
1.32935109765734,-27.743280635850414,1.9189869962963866,10.549470935252796,-15.504238882547691,1.742208053398718,9.620095551306745,8.868114133508978,-6.676429585460007,-7.6876561266108725,-0.9156774545803179,1.3342915599519944,-7.947846142257209,1.1900594292431763,7.9182851250129005,3.565680443743832,-4.141233746366295,5.831395672109053
0.9310710540698532,-11.030385925916416,3.510937956267924,9.779938088705117,-15.501465874044378,9.33710889717771,15.911015271226898,9.576062649028867,-3.8814423934455577,2.24201705594744,2.032018288664802,2.7989682219050906,-7.2310040283753745,5.367140300359574,14.55480663338773,6.631778038093146,5.275445621768123,9.085759950255747
-0.9320108810003878,7.1456338956534875,7.739081630382406,6.179310764076968,-10.3237790570298,14.49130749709062,13.804164337470112,8.135491789327073,-1.1868175431088357,10.31544981544665,8.59444782732785,2.4089353093927404,-9.542804446714316,6.4193491591583545,17.872053227933332,11.358586626556603,8.245828574973377,14.392764652259668
4.529325463669052,6.569624396678648,1.907908638213215,-1.424302944396394,-2.705583604751793,15.349333117034764,7.889444769519236,1.1283607566587814,-3.9637384282034307,5.692654738595611,6.759710010147008,3.0939292335719166,-11.66055037810007,4.542019300547163,19.62787547542435,9.152210640665468,3.207421873505944,16.96717625613961
16.43618411178713,-5.629401079861839,-3.3378907987732243,-0.6283697522823184,-2.022010709861571,14.54797009041947,2.0731538047612963,1.054840579758012,-3.813645994827998,0.7761867663139095,6.293578919266082,3.5844027900650066,-14.267853788532417,6.473551975813702,14.84173903016542,8.606516547706347,1.8791853442859034,13.09799524636983
17.30785337201118,-14.998098145681594,-2.5294869739514274,-0.7103753711493521,3.348222864318542,9.450483801713663,-1.6915667040192393,2.934366995672002,-1.3224921985789893,-4.2386164857220505,0.5553274795664187,4.075674085911367,-3.6926382232682666,6.1591838488391115,6.345727922590765,5.229233409599096,-0.621736616367909,6.593866973427584
3.140389784528703,-15.969976231780327,-1.8193215405128416,3.017250646463628,0.31899238712734546,3.377260800787396,-5.846173771156314,6.864578432018812,-5.37713582905276,-10.621283319999785,-0.8845873300582436,5.251349137758621,2.682012026301396,4.087219548524054,-3.6140210813066567,1.5594473553340604,-4.978916407133787,1.263435676398017
0.39906489132444056,-19.287386841641176,1.5270179217612634,6.062250498576817,1.7811322805914216,-3.1833878085598855,-5.507794439825931,11.575905168664516,-5.1375710961646295,-9.28962140846685,-1.2488732920798888,4.377012266682149,8.567085152594604,3.578037549681309,-7.517854057611315,0.03858655628099639,-1.0359169058748956,-4.162857988509291
4.005700236409684,-21.727624113271617,-0.9866965583811675,7.838675317031592,-0.37093689931894547,-8.375943539768489,-6.340592206078016,11.306521665054765,-6.170291488469957,-7.567938599533892,-0.8305067816632858,3.698791751405868,6.638245321028716,0.04173876508129659,-10.932255055276787,0.47131998913139994,-3.1483934136748295,-3.0442974922674306
-3.032126876317861,-15.966356581755777,-0.6689309597922342,5.514447544040085,-7.797383495425272,-9.368311480514935,-3.364037388166051,9.083799232375242,-10.135479832177312,-6.0421585156813915,0.9564546967773664,1.0682167772066236,0.8994551569326781,-5.252112086739915,-9.657934888512706,2.564658686664033,-4.968559984773547,-1.826304545192695
-10.55798733687553,-12.355303242693354,2.67562507791272,3.6794772123090267,-13.466836737926494,-6.0628144148726,0.19914904609525674,7.056189775077123,-10.490067734160771,-5.981808816324049,0.010381327902267756,-0.096693066812648,-6.69613465742808,-6.541694834720937,-5.648042765593468,6.611559926190645,-3.9572822162560275,-5.391778058674041
-3.1419340296086493,-13.824194352957761,1.4296624386735879,3.4079950571402504,-12.496395912225841,-0.4125886404635315,-1.2175400939105678,0.6337613999468563,-8.112974014860814,-5.726684826661613,0.8235236504842396,0.8876643042384567,-12.144560300169072,-7.147359726009125,0.8044529342825086,4.994703845317215,-4.411467207915679,-0.849909265260834
-3.0499075041954367,-1.0367949496088364,4.187056607600286,-2.4290190014187534,-4.300100655874695,3.285442811570049,-4.196100347783121,-5.00764348120743,-10.621500539868862,-1.6634269545130542,9.060024313051862,0.8962383336611022,-15.250509221325357,-6.190174759281374,8.33234794750587,2.8899343598799705,-10.920994989379444,12.971180775653234
-3.2505262513272175,3.6432753362459707,3.916444389467493,-1.7220108699059766,2.332866538275921,8.351659670172,-3.4630306169982363,-8.403176270378427,-10.398340703290314,-3.362470428529313,10.65716169066313,5.690832045591546,-11.228754495336524,-1.1310269217598679,9.41599964835036,1.762101089891225,-7.079331187332784,12.731277235617881
-7.357102431489093,8.126296736948971,3.938182789938648,-0.0374780438813076,4.765760986361182,8.438324419046314,-1.948080382423111,-5.158255833394399,-8.51772577847772,-1.839279770762848,9.228264365364508,5.798640235349087,-4.278580706932746,5.100362785991785,4.934330339344175,0.34163677126028436,-3.4334774525275207,9.465688837410692
-7.166361655949244,2.841814394827093,4.349923141261195,2.136283854499783,1.3384155673355789,5.791579702542878,-0.725502453803351,-0.5464169579809917,-6.6398325053403315,-3.6369001235995184,6.531163107118897,5.907229256416633,1.3030703924588591,10.257876983297209,-2.6712145477319655,-3.0316569698569644,1.1884936148767373,-1.4155150779360195
1.1303721362654926,-10.354670581961152,6.128236193927484,8.217288204802864,-3.359241328439284,10.177213185345417,6.357122753515907,0.2564636789067327,3.633910563939388,-1.528635227199295,-2.219380642351462,5.235331258603989,6.8834065418747326,14.341525756026943,-3.8301752519592593,-3.9631987565411744,4.052200021481672,-2.7245900578859246
-8.346178032634779,-9.392504531608402,9.175457320666986,9.904618976263174,-3.5653883050237667,7.141892010158811,7.9714789788205955,2.7192034639660716,1.404753766473176,0.38391334515172737,-5.499763564928808,5.052490185949915,9.337379984359556,10.51527682911761,-4.4020156426231765,-1.1834550228604284,-0.11584127971238978,-1.8835430828610846
-5.3220886132635545,-8.920343764363677,3.9211208723831685,11.690523513568955,1.3059359115936164,-0.18932441836648906,4.996467133873072,-1.4591211697094433,-0.4364735650309388,-1.7078827565942303,-2.235761251068377,5.749329580978573,9.446253107057675,0.7322939960928476,-6.046917438585046,0.5223277928964549,-6.042077233098813,0.7169752607601181
-1.6139221258577847,-2.004483725440565,2.3771215514830115,7.520212656042221,5.39528183301776,-7.519484770938487,2.6079283681629155,-0.3642811568865453,-1.1085009911736012,-1.3585891856027672,2.68972785975741,6.056290673207102,3.303717298237941,-5.339298013018231,-2.4171283307715496,4.572153318977934,-2.2028592688676207,3.612078371039644
-1.420937447704798,2.4682265044187197,2.199666051251653,3.2531409838493497,3.9174351802844924,-9.4774035267777,-2.9051508321919535,1.120821704694102,-3.1504203769481336,-0.5213372854485683,4.784435600885777,5.387418153288259,-4.89094310373379,-9.359672847734894,0.920859040702295,5.98545943684501,-2.3678933902999932,3.7743549515659804
0.13977626993143755,3.7165305142484275,-3.1543219581977846,-3.7474608548250075,2.8295331389616356,-9.87172368124418,-5.976298960039694,-4.8164461284204885,-4.511408964117095,-1.7352049000035221,-0.34624912937489327,3.5473869646161447,-9.864208108305174,-12.403058228750979,-1.0135021653242768,5.445832871706571,-6.927775101741519,-1.042345203282136
5.412028505675512,6.818636510354693,-3.333129947813319,-11.137817987024754,-0.2121949859647323,-6.163336057857826,-6.410220489118732,-6.359511955881841,-6.8516373069733,-1.6798055455145693,2.2392944523824587,4.051865481262251,-14.741122873697767,-10.660795371224996,2.9127677008473394,3.3438870553203106,-7.874534179383402,-0.09569366864009066
-3.377865876775319,16.657437398633675,-2.0477601413570117,-11.10532259631426,-1.106109026463935,0.37821572151855865,-2.8397272662326145,-8.195960667847054,-9.389831668229993,-0.9410624459973074,5.997983649842955,4.459399248537266,-14.638797371867438,-5.109455249660642,6.5472276619431895,1.4374437206269741,-8.723813684233974,5.1494196777696
-10.89761827273955,21.416352673104978,-0.1771404593721284,-9.118820012149921,1.9056454191832994,5.455997160443667,-2.5891702476350926,-6.321837772883434,-1.4812857941485298,1.555282632891887,-0.49615187569797925,1.6449289657649482,-4.674341090075169,3.274390675689427,1.6866235852324856,-1.83603861167212,-0.10043495329249597,-3.6666848479889698
-9.725217214723997,24.318093935116245,1.399801028360633,-1.272012981997591,5.991008946564332,9.753617580954995,0.005578828441994865,0.1417640602913257,5.350400292974765,8.836642582280271,-0.7389694044149389,1.27259129588324,8.023234919428576,10.779753739995769,0.3428529445700077,-3.2538721876765146,8.718152308343575,-4.668698731592494
-0.7395593535477989,16.76878633245933,-1.0279383499848769,4.329493252051652,7.634317934293568,9.560087071897104,2.6983710679409434,3.2845560885262697,12.472448976696707,8.207533963054667,-3.8126547393019745,2.4634536804980605,13.199872377430207,13.207356101358187,-1.5857145002084811,-1.6441818158578787,10.602968648858555,-5.571609436463798
9.32099402327239,8.43655250352839,-1.4055873792991842,3.6817180885894993,10.253608259025393,6.926221465972868,2.6571109468504113,0.2744526068023285,15.490276651788665,11.386908181718272,-8.252358339877539,1.4088507424319667,9.39071005939226,12.217383854709672,-1.2670100189781293,-0.22969061640972677,10.143963375189747,-2.1761608218335535
8.05393244885039,2.446446567605114,-0.5144167701243489,1.179246144878185,11.407451322570074,2.437969573651257,0.46772367233844614,-4.0056700555148215,9.716327144959276,7.827751684143133,-6.831424574403632,0.45255413648198317,6.263869544333287,7.809841047719898,-2.02140307825403,-1.7448330006922337,7.731802883419645,-0.5371601320702943
0.6351384068898016,0.16568338058870435,-0.6005634400921003,-0.5411777054957669,8.6544184471842,-4.295298110298706,-3.9674698873854997,-8.579244598718239,4.818732710703251,1.2410807494191698,-6.971859395196894,0.5711265769377123,0.6943088681346445,-0.3082419483755565,-2.286376693970622,-6.287284374945879,-1.9069954684698218,-1.5335550333559071
-0.3375176650587016,-1.5307781978350514,-2.2499828187226827,-3.2374073038213123,8.342277477038555,-4.582042165462958,-10.062544825213202,-12.176729914562769,-2.229880009750298,-1.7323563825307309,-5.450975630242494,2.057526037059576,-3.802287199711432,-5.203162437077996,-3.819777591934466,-5.653812199416807,-6.3698634908230565,-2.7239306555495073
4.9406703943798504,5.560318590380539,-8.294758442450105,-7.104773045007965,6.857706662648288,-1.0590219273275645,-9.418957149306053,-13.626242035522049,-2.444981753970782,-2.6550619017220094,-2.757080772632748,2.9585819256028767,-4.882126376946524,-6.191313523458886,-1.0551225219111355,-5.117952027132347,-3.020007163685431,-2.6434501379445816
7.094580835015909,12.35681053348227,-10.433991545490457,-14.096445029768283,5.958559855764815,-3.8826436146511067,-10.239978803041408,-9.021479661172084,-3.9321472193596327,0.9144290749143813,-2.015241829417784,-0.04608523292127131,-5.57259170396096,-6.593056078378503,-0.6331462751295982,-4.386748165573452,0.7206201205484892,-4.124217774041426
4.171079798793871,9.288245746877484,-11.98805450296705,-11.028644008959919,2.2268305692343526,-4.752001445926291,-4.7130124454475375,-5.589123250574595,1.9025230053872688,2.6283845310437135,-9.182600793373357,-4.905679709335729,-0.8931311546457521,-5.529468554875178,-2.4562000875764456,-3.948506775560661,4.656737539017013,-8.924103284494985
-7.345490792105111,11.589238363351594,-5.046679630683326,-6.299951665788564,-3.653862713504611,-1.2256549280402655,0.9118245973580666,-2.05962924936115,2.0705682860360417,2.8774562186002424,-7.364388978922301,-4.6865192509606075,4.4686913878175485,-6.3209126293023825,-2.715641574946586,-1.4594594770617628,2.6359418965459915,-9.425833886677008
-9.486086580851262,17.111324789206094,4.042370644479876,-4.500298171803257,-3.675571116547112,4.54792177076423,5.071986448550989,-2.534629186376171,8.974540929540579,6.153920659742466,-3.6896422822752855,-4.271508625996219,3.481526630065501,-0.9594525097376359,0.5416740884326212,0.34595970768495876,3.9357526930222964,-6.215387502185409
-5.37573549470663,18.92081218068129,7.954756447612987,3.1594963525765047,5.2867671087952015,7.881152368534849,6.693215863450121,0.21254389182025735,12.751028976420514,11.383562859289322,0.18143634575608725,0.34330130467963826,8.059627207386178,5.574367777770014,3.5070845726867645,2.932599674809712,7.677284184490638,-1.5389241515563912
-4.682534483272516,16.724734041574898,5.909206449822809,2.4213847706655405,6.240719119957774,7.504480622819686,4.017651356662011,0.3224203872077762,5.978064436923823,11.339729850998523,2.881616676452004,0.17337981439909367,4.433260429311699,6.151533552155494,4.422739611929315,3.0777378933017037,5.95029304587693,3.5292885242138294
1.3827319368391198,8.081653615453195,-3.94978585899369,0.31670695626035084,6.217656023559471,9.375022201549507,-1.9781518835682061,-4.841763245958772,2.1324361598308403,8.463884588642607,0.21159352203757353,-4.976607620968046,3.344786700985609,3.6041192619970657,2.0190771705889423,-0.1952200379399282,3.442384118207561,4.3993037503590795
10.378638658408475,1.4878010724331003,-3.6532057760137073,-2.4709506620103796,9.709847555892658,4.508257678306496,-10.024665488486304,-5.904867888385425,2.9720046103765645,8.420195087370224,1.6441448222447608,-7.294061227188788,3.915295662907707,-1.5795867639715135,-1.6531020835488786,-2.394034958011479,0.641879085209051,5.172713148696808
14.980873070768668,3.5839095621269776,1.8183924387184351,-5.160344247712724,12.127393493047597,1.9863487076324837,-7.3287477821258005,-6.870864191993786,3.5162466030680517,11.989941984848462,4.054199550218877,-4.337557314247503,4.679930818816979,-1.489308294155193,0.14457359217075494,-3.4210658902249182,4.384852389881889,3.505697029447934
12.455035832003345,-2.231829863634183,1.4296746114045822,-0.622477183951589,9.856970886262882,-0.9251304476157101,-5.02340344143419,-4.712364891830073,-1.1177029018951887,2.766643278534934,8.515969020010617,0.8654939991595567,4.857440150634899,-3.0587459363862672,1.7479425009034344,-4.350564609723317,2.268803300538891,4.671738985356483
7.781688533833954,-6.486609466506206,-0.32711276991120253,-0.5762970257980273,3.972828190215456,0.2660664217093567,-2.7180238167581847,-6.070098371853472,-4.875041655888574,-6.456519111667606,9.853568695925947,1.8696613432377045,7.670539277247709,-4.237088534604201,-2.7024729662790836,-5.2802053530067345,-2.092899916016115,1.0535004775789574
3.8905796705569347,1.5619291975724792,2.309827389243699,0.44701061383995705,4.240752613803374,3.70443160319849,0.9545771409182611,-2.6431581532333297,-0.04078544743495316,2.4848120608863358,7.188054132768662,-1.422733875016875,10.873110656145956,2.0070194945657978,-3.7338856382492,-2.8896413077325476,4.190595919493088,-1.7825625313297984
-0.9761143595710311,8.827656076987498,1.9184972542187164,2.6427418348035037,-3.4996150793488043,8.608691725174825,1.9904097776627379,2.443407263701812,7.037335723003739,12.79352269118459,-2.0197011659143476,-5.398376441844089,7.53146550094915,4.833566977969953,-2.6158601709608877,-0.2062786207257643,8.228500172939444,-3.250539226706546
-6.525405197947824,9.841744963268845,3.0888010223081652,4.057722136554901,-5.673836029366624,9.607658840802035,1.2683714573552203,2.3535558650815425,5.909967124608368,8.258444732441589,1.6641673740169478,-5.369716306890553,3.7980524846984816,1.7034503515147479,0.7492467393656916,1.305000558333799,3.7707481073286737,1.9230523487540956
-2.405557846656415,4.9948341831118945,7.383252946973781,3.9106695855298987,-4.235052153144379,15.099885587295585,2.30411854460904,-3.9869470888415743,3.803805334817433,8.215827165939103,4.46989222821877,-2.606325860022877,-0.8154057684587663,6.581723840363434,2.2597951774582095,1.1558916405950026,5.368373188126993,4.656005984638192
1.9106408365857104,0.6346843541882805,6.207962313893159,-0.04456416550271536,1.1097225691412365,16.003188356231774,-1.2501243266680977,-7.300615283065097,3.5509489563632064,8.075772258090371,0.8309556027571481,-3.7489534780520604,-2.207272566151107,8.14008668862374,3.087662811265885,-0.45830561806083914,6.283021069674007,3.9717075513968143
7.302123828425338,-0.601937871527201,-0.04644948477822686,-5.3665562449833715,6.649506732720605,15.540258052971744,-7.050593620289316,-11.103125766825919,2.0263747644894607,4.127301559187137,-0.6587884069683891,-4.207707689576523,-2.3306908209690578,5.694931540479972,3.5258072720386173,-2.854002592935914,1.6318339955195005,3.288140891979889
12.792326409394258,-3.890884875475984,-3.6650305247068093,-6.9771251013731925,6.5248485780238195,12.636844293023731,-9.433162598797999,-10.902220310853703,-0.6722347296284232,0.08142449793463324,-0.29234047813962105,-0.8575633823323059,0.6698487056804272,1.2970675001597636,-2.285251803995024,-0.8553544404141724,-0.38190909708306053,2.4099531479835186
13.693689088702245,-6.8883628522055105,-1.3274271571925595,-6.243500332112973,5.325674475970829,6.511669211708666,-10.253350472777482,-7.088527113993196,-3.0799883504918384,-0.6438230828896669,1.83261378352901,1.12559639704052,3.66931079301568,-5.0535091224096504,-1.8453399911377373,-2.2749955785256857,-1.3207037802629054,-0.6160481594240319
8.736672623296258,-12.328780269027371,2.669410575370896,-2.6774147686352996,4.028574356216042,-6.448620194160421,-5.507211996930968,-0.9315934677181019,-11.056325139324057,-2.4430249096244205,6.692623516315406,3.206614693635151,5.593473052669385,-7.10670688645267,-5.017905702213789,-2.3277117665639384,0.8662902534102743,-2.371880080445072
15.206707730518051,-22.262941180518823,1.782404656148001,2.158585920159413,0.3874326770954797,-11.009433727125952,-2.5190997312942667,5.2247987515424565,-7.999403620673901,-1.312199406847454,5.205490238162904,0.9908699156634103,6.832979489851155,-9.159470510748895,-4.283319942257854,-1.3064910665956047,2.5657638678173127,-1.8810034284964132
10.837839699163208,-22.823437751401674,6.070292949611031,7.873848653602995,-3.25395235283126,-10.979441133763817,0.8594346099029528,5.911820526223092,-0.1592932367226414,3.822902454276929,-3.214761514895873,1.5096958483161278,4.848742199767743,-6.3289173528121285,-5.598722183121775,-0.3832410142731444,8.758288533717039,-4.905263327068938
-4.272264366232029,-17.52593963137891,6.1579230995282614,9.292490791546566,-5.040071250927529,-8.5071311666605,-0.059202444620601646,1.6177655169771068,-3.942468140456872,3.098862472209319,-5.77499716903099,0.2708127307420254,-1.726433542856511,-5.646409267428518,-2.9093501787774496,-1.7064463561406793,4.306940718391783,-3.1437905412416853
-14.20538413621193,-2.7571011716141074,6.244568705801399,4.949623527667772,-10.049114098510154,-3.9831538173457597,0.2914584007804506,-1.3096076905627205,-5.774476011110016,-2.0194400256830702,2.2123250700611745,-0.18670210762479877,-8.986224193245773,-4.572849766198088,1.636307833458865,-3.1276510796261725,-1.1201376592844685,2.9150873481747244
-16.324752618118517,7.420372584760406,3.9864348667784633,3.341447260745856,-9.003583180041415,-0.5325763376954242,4.255181068993469,-5.4093943591858595,-6.827183051272102,-0.008378797050078823,4.9266212327047745,0.3324427097842819,-14.489172000965397,-1.448062203935347,4.620212689493394,0.6266487075037825,-2.3470612783761116,10.927545512299666
-14.82964530777321,14.080726591254054,6.610185314284401,5.249200633330509,0.7332928963674827,5.653233057212603,3.238062638738419,-6.286989709725636,-11.9834493656685,1.2217818016610549,10.961742062122294,10.910392732982018,-18.23526240665218,4.21623700819939,13.073703121458255,4.28292115961172,-2.4011955483505156,20.795886977748808
-0.7355434639159948,8.337116583353371,5.7172454711474225,5.399342119184869,7.735570956323708,6.859292325392773,2.1229683791599627,-4.235360009987705,-8.157110666053851,-2.5282287636201737,14.458192452506932,14.945307686938268,-16.220513189943105,6.755893662175962,16.35206660445524,5.595024574223638,-3.2356713029227118,22.75429834842307
10.234662712379194,1.6155085234156505,2.1865262011617075,7.209868790439062,7.511007395904605,3.6715268686686215,-0.3596740176891764,4.8471272449832625,-2.5748124229980545,-7.742719850672483,17.17378073497906,14.390317766088938,-8.054278200163417,4.999009434688382,11.232578580340942,7.492677677023117,-1.627759721554047,16.60742463399673
14.955930803276239,-0.9082267135686772,4.221269022021755,1.6962444548767392,5.8214213532121555,0.38685576935172605,0.5753430814509479,7.3860540475209895,-3.3421195973906923,-6.218429577322714,16.960005357954113,12.565761383367485,-0.474926004359403,3.6331502561194533,6.797389475013738,4.214060524782491,4.1804013332974375,9.288925771147646
6.689881303315646,-0.6012865553650988,3.6182152683351227,1.9445819333653922,3.936375955103911,-1.04158807423579,2.095923632949375,3.3814287074551954,-1.279176995286642,-1.6663406377340166,8.83629004833919,5.760619534334893,6.615216946753627,1.486417501866723,-0.0785680634926944,0.3490738361642892,5.887926175775764,0.408131111605619
6.335274457264849,-2.6395200027957517,1.7445649862012642,9.810353681968774,1.855883750752915,-0.7114847025005293,4.397361593014058,1.3294833509936632,8.985218840398147,2.202564000873196,0.22459129607103812,3.8382989852992773,10.091119077025413,2.6604303771559845,-3.9264805002636614,-1.9538249616395358,6.229253158460178,-2.6130108244856265
9.10688413970308,-3.6048946261508275,7.38950666858633,10.156585134166415,-4.326352261955018,-2.138535431378404,5.233507471801226,4.648248028384993,13.193065705284345,8.611000653538394,-1.6484500980954913,2.8924650555803746,8.390272943945538,2.565269086965407,-7.090153740350891,-0.4485204836902798,5.302061045340538,-1.6300368390440614
3.285783959036066,-3.3020831162829363,6.880948792054977,16.167046136847482,-4.453914439986301,-2.783662033764581,4.11605116179084,6.599348214542342,11.246733799896198,3.3009498880058326,4.584342076927667,3.8996700068285652,8.44639478169826,0.029034623626778444,-7.030506893982128,2.032900391255295,1.6415041467657798,0.2319656699168
-0.385672961703853,-2.609992996330579,10.179973182485917,13.09539264361969,-2.3354419039735843,-0.5960753039661464,5.732542845841842,0.8350407326927103,9.494004238424575,-0.0554943051279877,6.813375740207068,4.027814194570195,3.7164329647228573,1.5947893438052407,-3.845218251129313,2.1700623132108943,0.8140934462000402,1.996379647745334
-4.739560095812168,5.307429995399005,8.985664516952477,7.875298721005279,0.2712388552195111,1.6897844006871927,6.5672826023428215,-4.929702636711579,4.419226427381053,-1.6536372854577275,11.191056092943116,3.472187902680776,-3.1628362835457393,0.03585414920965624,4.418846260192211,2.306739095695653,-1.6724079286289468,6.299924519701263
-0.693707335662185,11.563344276272264,3.8839621053910967,8.709988877771972,5.70992652950796,4.562181875430096,3.6905170229709534,-6.690903871146421,1.6865773767255434,-2.4700465771139535,13.615725527839457,10.631331596324612,-5.843642340584836,0.9187138158991759,8.19120720865527,4.005442872805828,-1.4233831228090148,11.287063794047302
2.7673727857770283,17.427313560432538,7.082076639325627,8.86105322281228,5.0937798015565505,6.849200085293348,5.89142159494082,-1.3235042517699238,-1.731304759712587,1.108623846140258,19.653842648932624,17.106654472989504,-9.11119668744183,4.6339928204797545,13.233650211496894,7.754450885497882,1.268212562597129,17.739020127523272
1.053765327768406,25.243137031377508,6.958730547968646,13.504326026508183,2.915067869743294,9.136761094564402,14.63484138155118,1.3090758490700622,2.1735428107690167,4.785442830295665,19.539600829917198,20.261372462642925,-7.301332339933523,5.517535690855078,18.37426119723979,11.4052816467786,6.890685114425469,12.96024823929065
6.763316900787414,19.58090550312582,7.4202273021761,11.213825625455716,4.642637461173763,13.768626092349914,18.29948436300103,-1.9181995351220087,10.178442755606193,4.947083180404692,11.22215492389389,18.630594471642013,0.07425772617741333,10.307719904954336,14.433191280333242,9.977379469947854,11.147110615677107,6.9117988014997085
17.454581421796927,2.491445621897312,-2.861736699896287,9.802145080909662,5.979561427959252,14.006386264257959,14.834517159534743,-4.169276551932128,17.302878398427527,5.499863477670373,-2.4664531601629776,6.550146708774068,7.546758649791142,11.191919625793838,7.269883452755522,4.642626571488632,11.303088351327663,-3.2384411892039786
24.2407012485349,-15.966480911930017,-5.039222937575177,-0.39885808358571495,-0.6914503911299077,8.580466102279662,13.517404367559957,-7.201982168285315,19.152279471428294,3.9046912476659457,-16.155080177114627,-4.065751226534626,9.061409386920358,5.826342444739756,-3.018026043735274,2.3347121225080496,5.503136625461744,-10.654468135531967
19.113737694024188,-22.218433372028425,-7.510801937921469,-1.6155013863233263,-6.385872168987781,1.7877811765849083,12.980917045238845,-8.672517964764932,13.773519169153708,2.7006763057647643,-21.05456183909658,-7.650632638070325,7.840934459550861,-1.980366420951273,-6.0788383104842545,-0.07142164003658147,-0.295607688934731,-16.70352823965594
6.6635998505581,-14.408899449175268,-8.225665550824402,-5.664397595047673,-9.834139370874645,-4.613854262011847,6.877281660629763,-11.022314501564768,7.1237475904507015,-4.362268332560747,-17.06727254786889,-7.329569454510079,1.9321984108971924,-8.028930778103577,-8.943932225543284,-3.552361881064858,-7.753312090241705,-13.573039713659035
-7.7385419559955615,-5.135711958461479,-11.480758222485628,-8.932236488942253,-8.301821167683832,-10.819780805649902,2.33549300094243,-15.813882405216535,0.27722777771784113,-9.569172988686129,-14.642622414998929,-9.352680999917869,-4.953785041970806,-10.952148863085265,-8.6835971790977,-8.010460293447807,-7.494820079003489,-16.107016021868304
-3.7798838318553756,-8.266253906956852,-15.322928488621422,-11.61435963238941,-6.964763476622673,-14.779211027495595,-4.550778576972755,-12.988460970083963,-2.4690718514548884,-9.111377755482888,-17.101006257784768,-10.301969995101082,-10.277894819516998,-12.117235582799374,-8.911191132278274,-7.9768925165747735,-7.528053535701321,-15.711612495189097
6.918296433768329,-13.839419267356748,-15.748211773564606,-16.054578760210035,-6.897186913068608,-14.92964617058281,-7.824430730104339,-7.819554455918514,-5.21674857910524,-12.461675540666569,-11.942264691680114,-9.103224555912131,-13.942453102979936,-13.672667694385574,-4.548533132447633,-5.307164339856246,-8.536604463948938,-13.070469240702062
2.2853422152111387,-4.569771053104136,-15.588684718570233,-15.319220150929421,-9.466285087488385,-12.052373177418222,-6.118274642615791,-2.7485924439464617,-6.403250804722074,-8.975364930887366,-6.686074729543947,-11.1276432422407,-11.845814487544953,-12.005115200518409,-0.1855584379906543,-6.349037225410632,-6.614151714187023,-8.964883534969342
-3.1277511867895544,10.55819608022228,-10.840381541038669,-11.361464264665315,-9.10555182753677,-8.393544998392253,1.5442478268130848,4.86119816201637,2.4676725783894584,-0.4102776515662585,-4.262199238042256,-12.566596601054105,-1.4488571744477203,-7.700530830706111,1.6386103181736802,-3.5828731501158737,1.26670556710715,-2.0276817702945387
-6.098286937171017,12.989529403533966,-2.089249612577985,-4.376652042980938,-8.354073153546908,-3.8555286988424373,6.276263377247831,9.345682710661718,9.28648946508112,4.835028105719298,-3.5964333523680123,-10.099743407630765,3.869329222227127,-2.1261291261535864,1.7052137692765965,-0.03606962982705997,7.391016180524526,-1.145752424390961
0.7957140317595224,8.290738466646722,-0.17529837169837037,-3.7399517822482284,-5.551652016969128,0.2921004407545229,6.5152295549946135,13.04866138007489,13.66259652506298,8.420741250037063,-8.106827843997898,-8.805307586645405,7.624444354094727,3.839164190087806,1.186123629077863,1.6546071855967002,10.098608173918546,-0.2643490783778878
11.108831110636853,-7.932756204687877,-0.6062713940999324,-3.8848972994059916,-7.046025815501311,0.9242702474367264,1.8704971499863525,14.895913555969425,12.080342703059317,8.882002875087714,-11.445659037422129,-10.83178032828533,7.082092716805572,3.8475900712148343,-2.0671514147833223,1.7821237646556203,8.31525539110114,-4.949995709371567
18.590958608859125,-19.274434958066003,-6.995504013783597,-1.1981769575634769,-10.200419608420006,-2.2520167951949883,3.5726884165147936,11.860063910070123,13.817240864311392,4.070349766119942,-15.273137493763612,-11.491610457225768,5.367343418962327,3.172660676990903,-5.6131887307331,0.05350055775061535,9.07232346013088,-10.222179654347263
12.597391984566578,-19.777155851325322,-5.768568615461185,-3.2971189617731484,-17.260945217445947,-6.014079344032456,3.613851216185219,9.6052760540488,9.107544514550927,-2.205559265868394,-13.436854088424434,-9.710582604255945,2.1872448617565645,-2.0919392696022876,-7.596511951860084,-2.5546909315384263,1.920441876219579,-14.225435205622551
-4.62575213241648,-15.398020748348111,-5.519343899514563,-4.126967606932359,-19.829020547726348,-13.584646668965695,-2.9865762027481484,6.080752177716999,0.1974091720172968,-9.65274417157389,-12.186932202356155,-8.027817185304263,-1.9698924409700493,-12.532161737896265,-7.528852878772982,-8.288584184084419,-7.183260169076011,-16.666819745933587
-8.957023827087204,-9.652687515240942,-8.493954751406966,-4.95729739159079,-13.607688354400853,-20.471486311861096,-10.076172745596422,3.142004109571425,-4.221598810265178,-10.458579021095472,-10.351506459181307,-7.0292791947902025,-9.154859032416875,-18.47989583292397,-7.851675304598878,-5.526913132348438,-10.035526105784813,-15.69086604337547
-8.795001134294512,-7.3263641456884105,-9.711852571646645,-2.9560574063597915,-6.702524163186627,-20.229210735557814,-10.623597157460676,-1.0664504280289044,-9.618285402078365,-9.79891742696685,-6.563395483600633,-2.808676945350548,-13.508168322675639,-15.540548471707543,-4.3657164655586405,-5.207349224294112,-8.784820461033068,-10.321025737066806
-4.627985598846028,-3.34082638834488,-10.051952447094,0.8024939892450671,-2.433874018037597,-13.150816179818065,-9.218778733355194,-1.5640518965225356,-9.156581306312553,-5.23230937014383,-0.9202834744272335,-1.9090962941640597,-7.705467443264715,-8.011065284506262,-3.614064771396922,-7.036923328568121,-2.454560718362044,-5.928502770249153
-1.3388775116752054,0.057819983141603526,-6.486859131507618,1.0448159601777354,-4.610372463484657,-7.048944569586446,-3.9085776262317347,1.6492144900790002,0.2885886696045459,-2.0322663989479457,-3.5786013295065247,-1.4008216410222114,-2.1961120613746656,-3.899385867033795,-2.764665323895681,-5.058516916923017,2.119215786763304,-5.345399025896137
-13.96698255812921,17.71357419777033,-0.9697213944951453,1.1889069074957797,-1.9037041391070753,-1.0446986426406188,1.1077089592774743,5.545973556212795,3.775617823350468,3.121580975269397,-0.6709753313533238,-2.260446314634263,3.6058669523509694,0.4078214192812015,1.7957989626716508,-2.1042076005652355,4.3505664456702196,-2.4193034681152734
-14.777516644175666,17.00877424790042,0.15171442127558432,-2.476249420972336,-5.056202790274501,2.8110869804093426,1.3378111979353622,2.9972250116137196,3.6483194969289814,6.225271635514064,-4.7952787939055215,-5.171589734519831,3.2550815879429837,1.3948733366213149,0.7898237531059045,-3.349858277990912,3.3605747852563246,-0.8612359811528361
1.5030237078207733,1.3614647013808265,-4.7827257663035,-5.653734195916533,-2.0559485630811687,3.7371286269930026,3.0318113014378665,1.913260507280539,6.840420867204034,4.349079510770483,-11.166306735774555,-7.595165195229555,5.247778216581374,3.5540214872928075,-0.11846075852058807,-2.0570870727286037,5.301680976600075,-4.772846569222463
12.999289847583004,-12.82182997583674,-2.491581064231181,-3.851312704580572,-1.0085159447173484,4.174848379721518,5.310777094649145,2.0987792119448265,8.957351312261455,2.961844086482259,-11.287859496066282,-6.796769799754957,6.165959041867022,3.5648984059876945,2.098316936702087,-1.253285642964505,5.974604089067328,-5.853251392370667
13.851802152067908,-17.43549277277834,-4.6937713217386845,-1.365946430921259,1.7971072418577032,1.7804393895985018,1.5339703994976235,-0.25485615150597085,9.413192142910873,-2.6240002209638122,-10.433478216895104,-5.999122078435264,8.060459834754262,-0.9162858327012909,0.3111236825047353,-2.5986368051162536,-0.08948807707038409,-9.083018417760199
-1.8965770836751377,-13.944364757796789,-0.939908644359372,-4.740724454416286,-2.6235729574946083,-7.35242869422132,-8.786908645572755,1.200122044096036,-0.9718563835885101,-9.77168857777771,-4.989849130672145,-5.788180848223064,1.5561608808230623,-7.936380454095526,-6.749608948962546,-4.432959730964581,-7.812392433220996,-11.434780065126676
-10.319717408854931,-13.481402822877055,-3.437200119488621,-3.0379999309035925,-4.700079804477536,-11.114216493828103,-16.96033161839722,-0.2746558319705191,-9.599917867502887,-10.96156923444162,-4.5274528330864285,-5.187380347108029,-4.948348725710971,-12.221871389150717,-10.197044080192411,-5.682019553626743,-7.623650489894927,-13.29918880016804
-7.023036710919423,-13.605137537554738,-9.744191085863047,-1.3359949498225205,-2.6745557268980313,-9.40728631701393,-17.322159307960007,-2.1400741854516774,-14.42015173878574,-8.049133584857131,-5.823605409673666,-3.415469550858912,-7.937366800782873,-9.18284862497261,-9.34759466405488,-5.076265447521251,-2.3553373996856752,-10.672297922495751
3.305876995772893,-17.831221186789186,-8.82554502547037,-0.7089637960391841,-1.8205004190204161,-6.821571642562285,-14.657629944137113,-0.19683593682270945,-12.112166686682455,-8.554022041425352,-2.4329169744338417,-0.9607473100009045,-9.949970958502673,-5.167068925555841,-3.7129887831701818,-4.666509275322298,-1.9685439895734174,-3.749442699210202
3.57690242094886,-14.831329134639242,-7.321975665295714,4.1165928226344475,-0.28239854349423466,-3.2594340643400614,-13.849638724962363,0.28155509394041656,-9.023687543188917,-8.76523499329269,-0.2148723580856542,3.5439853381979125,-6.298565959333273,-3.3972412597840353,-2.277754955451316,-5.13635406429658,1.3493469736223762,-3.370651217757567
-7.67484356679425,6.332232697660688,1.0166256802705291,3.5701981741684135,0.8655330117140005,1.2791074427070854,-13.921615653452339,3.1037648046717354,-3.10387334755109,-2.3350139427853245,5.5180800773716285,3.1650201982514448,0.47777074092240435,-1.627241047852395,-3.577043139676273,-3.946696947762703,3.887338739952796,-2.8952152315787636
-22.24612807392786,21.53803006319565,0.5650346126010737,9.370763362672324,1.4279969757481128,0.8369121136928239,-8.03752552619125,4.558812978306521,0.47144423903865684,8.588176112823222,0.7032063894767431,-0.5351267768171941,7.156357570517143,1.5101367186478356,-7.610869027508472,-2.2694287201102297,6.329032217072303,-4.862253225020581
-13.28109007534626,11.352200605226658,0.8937243872647231,6.77195241008036,-5.33337257880705,2.6406344597641516,4.388572297892162,6.306894972345677,5.1203148417593995,10.820545430617475,-5.96797339320122,-4.236099551970993,9.53793561051902,3.1828143001809543,-4.418158443257257,-0.29986231625818593,8.967396701810472,-5.560787479353287
6.62240421519759,-3.0334977917815196,-0.2434176075698815,3.000421375675315,-2.3284530759032322,8.93638460090806,6.364226047537636,9.71523278254862,10.452136379542658,13.834899862758862,-10.58916799756842,-7.351958053233494,11.528838416981671,11.887011879278406,1.5088176244565128,-2.2372775656363957,12.974320501191762,-5.576780016590273
19.592970403569087,-15.95488760017807,-3.2370062407236198,2.0601214122354943,-0.6902089533950027,12.888103179148732,6.287997205150969,11.951765430164471,13.146574731506282,8.549074511827053,-10.718951748874545,-8.515499519578889,9.515753589091853,18.93118742832994,2.748056361185296,-0.757340517549284,15.029435225442544,-5.984480743878015
15.376527622059163,-14.814091433938714,2.0693802253361353,-0.4435614481280414,0.8509282109640424,9.51522825412181,5.527090785633366,11.649297884283081,10.176269167840422,5.900741081613395,-3.1346365561410083,-10.754118728008343,10.725377907468413,14.842537042546802,2.522249007424917,-0.5476188224496923,12.20300279761417,-3.7565136778965353
-12.27703784670834,2.439732449453998,6.300616162654691,2.618372708413748,-1.1230448489612455,3.798287736257798,2.1283494674780763,11.1516290813066,2.6154842233935565,4.62035362948606,0.34717417511378823,-8.501328554204482,8.126378112830295,7.824307818142848,2.198590122218346,-2.1940546171226254,9.084930488940335,-2.21325515181067
-23.81635977951602,8.853077244123444,5.843383264722764,1.9684240122563477,-0.6549885321273683,0.9131253765189533,-0.8808384884644966,4.696965366726804,-5.922414134283089,-4.3742531272470195,7.246110059997747,-4.1009180569073544,1.1328318119694525,1.8804640560685202,1.679408545417166,-0.6184406908141256,-1.5514616207320877,3.039880751578867
-10.354602529455354,1.886871431569947,3.627432458984811,2.0988345281715417,2.3527721434848416,-1.191087478819063,-0.08245301761466228,-0.5856653741467213,-9.773247193783652,-5.164863123276507,10.14016693295205,2.0564792733517674,-7.227846987836228,0.136050424248787,6.433524689883404,1.151838146595038,-2.811392261594386,6.8270221813869
1.447651977898424,-7.716503615806453,-6.109023562602815,-1.5803229219347805,7.9979119246470844,-1.5377891671934234,-4.461006201438018,-7.430667165825678,-13.722214225320382,-8.78679669727712,7.173832264567677,1.3769805355559237,-10.998512060143444,0.0519626901193147,6.597494154559792,-1.082495394359615,-2.6051467717413566,3.4840093375087076
7.000470934828187,-17.906205186347208,-14.772083677818086,-8.190141462768853,7.100619985359208,-2.275465331712495,-15.090732310111145,-12.615322036487088,-11.323874158434515,-10.25950492931614,-4.973272139693929,-7.311308164690609,-9.886166091794795,-4.03595103553042,-4.86005260618037,-4.098729959460384,-4.7413860039204,-3.375831529136455
-1.9970727386832094,-7.295157829887204,-15.428027723947304,-11.285222409937049,10.403264204732457,-4.380708348321178,-14.881525080066629,-11.647361541187358,-5.703244221947658,-3.8211771021564362,-13.507996924508028,-12.973062453872796,-6.332228480005561,-0.897053569625031,-6.4544246216956,-6.822624093531488,-0.62623840185592,-7.697729939320376
-2.3024561989775143,2.436650671612263,-12.276117299461163,-5.689717064714371,7.358824806009123,1.7169257339193313,-12.134289809487878,-6.968216931387651,0.11231633716227574,5.05935726049695,-10.22710610353278,-12.776207385698283,-0.2390173678261846,2.1443216731161385,-5.2169906414270475,-6.715069864825484,5.248029834821066,-7.528539787518147
1.8850182833733342,9.433753929741988,-8.832009217720703,-3.2202228627457616,11.541743500412643,-1.560970494827411,-12.610829674479799,-2.8748166675831053,5.92752298305903,7.983536303295421,-4.603414248081799,-10.041104905655711,6.147363344262273,0.5959157706491317,-8.765065450767938,-3.4830870006371812,5.850050696456514,-6.090974496615882
-1.7395441228439434,8.03203381107408,0.27549465144574103,1.006136985943824,5.373642549715205,-2.2025087789606435,-7.033654989965211,2.781321490646949,6.468888944075154,6.611545274671422,3.0700920393915183,-8.576404932551148,8.43233947292628,-0.3664138967599109,-9.774329185581173,0.6272038808345197,6.453330875428785,-3.189725899997457
3.6209681894777765,2.821434992246812,4.890012331403911,-2.776421076833548,0.964096855819926,-1.4772531131531217,-1.0669094336944847,7.949396806230359,4.5685201356206,5.728616974410073,8.301143712987527,-10.042286386756818,5.444042253842824,3.261297198019051,-5.608033098138405,3.2720247614620863,5.69065019083158,2.3470922393421922
-0.8814084402628766,-0.14323167641520484,2.374808394382492,-0.7981645531248001,-3.835349116964997,4.325777668617863,-0.6677090290224337,8.430138103743783,-0.6524713917778531,-1.110656048188425,12.847567464173718,-10.53243629966218,0.11222799796332517,4.740662195521602,0.6087653016946293,2.791202131177007,4.050284993276498,3.585774379167024
-10.656780150279442,-2.326801286367557,7.18325247756543,-1.457667264224911,-6.973868469830569,7.979898255269562,1.097652768740808,6.176711677902544,-8.510449479216982,-5.117073916899356,13.096014631668108,-6.726487458893345,-5.512266659426686,9.931142743369897,1.1610951269494505,2.700423021171517,2.704115297178897,4.041993807163179
-11.837767870558926,2.6185103090228288,6.229232022534239,-1.7275467336145809,-5.2287418276741375,2.942027940125837,3.4479218972011942,1.677417560584214,-14.610783570093114,-4.337478699441258,14.612964470108249,-0.38227447322613095,-9.964551541361551,6.723176333997854,3.8615665799709555,2.218434197611166,1.8474432134762164,8.012686350113002
-5.88925783259357,-1.4207929702383082,5.176921084887805,-4.439884182554766,-5.826628430073525,-0.6314399906857384,3.7463480892345196,1.475335510761596,-16.511997632336357,-3.166465706249279,13.980384474572265,-0.8749350365219861,-13.146944853428062,1.5621711189086844,5.096834671584531,5.2515542421525,2.554490028251003,5.439100635962166
-7.264615802245456,-3.1163822414737754,2.854452402812493,-4.321167681635337,-2.6150775528874446,-3.9124096716075227,-1.8157109517770675,-0.28898787135841664,-19.975865523132665,-5.803314901212989,14.030337835406256,-0.09887073363987664,-15.743026747118506,-2.6221433590268797,7.308334703732527,2.4246493547627024,-0.8389075114399551,8.333135150250929
-5.6121416440367335,2.414660490762686,-2.3983295077667983,-8.988706272599897,-1.2582254807085524,-4.6547638896410515,-9.331935204647149,-3.029595296462218,-12.306847929581266,-3.1658537239646574,3.239200265067817,-2.3510155452005064,-14.33475231906195,-6.025085200252883,2.6834396648031795,-0.5981220169675119,-3.4498771758587843,1.460179451919938
-0.9318557708869528,6.676142763010004,-4.428960454348109,-9.555650179383397,0.8806989441340785,-5.592929729274372,-14.40771510587917,-3.719086130496772,-3.368343228921073,0.35132211027043636,-2.377169483368233,-2.846133039628116,-7.75020472887283,-5.912240254763774,-6.043441121293957,-3.1331459166063516,0.6786879713006675,-5.41399486515702
-1.9153175628919459,6.738363218064022,-3.042097940007014,-9.73299736357794,5.461888990140505,-9.656649299262043,-17.53132726321343,0.37696688264937084,-2.5354608209152802,0.15830126693524246,-2.623466236798299,-2.951423857673732,2.35045834833493,-7.557129012884261,-10.571406741889504,-5.571043283267906,1.4880250659320913,-9.359657469237897
-2.800740956567764,-0.8166683049430054,-6.147991459227791,-4.051917469189905,5.356340807106415,-6.591869328214301,-14.894106890275191,0.7623507264349771,-1.8002320914677623,-2.4753633224538936,-4.1404263071640885,-5.401296468882574,8.056983802995594,-3.635423432159855,-13.732538258876346,-6.056306796929075,1.6148770615105597,-13.599515121387988
-11.88905456826637,10.378668652067072,2.562229474659312,-0.9109784929346256,1.93127341259432,-0.10959291914527158,-3.8592812647554187,2.3199626271314964,5.08747251104614,3.6809706220227185,-4.095984886006796,-4.531593181577193,10.638946017628777,4.876296675532114,-10.35098164203811,-4.881899195319637,6.723376472509088,-7.48887495955167
-15.605853326704937,12.589606367459535,4.826595751767131,2.814865652771358,-4.129698898541826,-0.1709180758452149,2.5846847176662227,1.7294494834737768,7.19002052409558,1.9278315512089366,-4.4433061029815635,-0.049331527071040604,6.287716791232381,2.352790536530987,-7.946388680926451,-0.6806014201063273,-1.057859925927171,-5.578740568360613
-12.779265266633827,2.5934697335192127,2.891264089412781,2.828673552795477,-6.576471202041125,-2.674227752434414,4.6331218685395505,1.5299224471378996,-0.1801249053813916,-4.4144155085028505,-0.9831161293062685,1.1117986522423209,3.9878317705103603,-3.393324929369851,-3.88200579710967,0.19984431714832196,-4.834060217145122,-4.841721814609654
-7.120305545158343,-0.8594250037834094,2.9087011940570413,1.9625195696090563,-8.534082202106305,-0.8811454486744572,6.680644596939121,0.15886742937340137,-3.0578720324979987,-6.4589144991615,1.0110584002222458,5.3972183461191,-2.9990696833011916,-4.354117260879736,3.7953167935508,0.9821545261387641,-6.167765700321711,0.6793041138176497
-6.734587750621663,-2.847250385035619,2.828123970173321,2.657847852449242,-2.385219779999601,-1.920693292847169,6.188168516713773,-3.16496789093344,-8.37688527920479,-8.209631221056512,3.882994911105211,8.60765527607821,-2.4657467564850823,-4.826529191862567,4.733853996016975,1.2757095052407408,-5.840256064853859,3.6600078255043247
-8.88771645298003,7.17705926455055,4.700374764530357,3.1568204722283486,3.666873669910979,-2.8631457074574165,6.671389868844873,-1.1172435555421214,-12.816766138461313,0.0015519808603785545,8.999893756268788,9.961858449617537,-4.470923532164924,-2.369119323491841,8.40640233278741,4.791514798601811,-0.2382129876432999,7.9090427401398244
1.7525521046365,8.803065775137535,3.349623497578932,-3.767233199424805,8.254996933072102,-0.38814568306223096,3.6380709265413014,-4.928590383531877,-13.252431378351474,0.1079543928735156,14.60390793270248,8.678577230659094,-6.573133511672276,0.8696400197103702,8.855835745106427,3.423989539850552,-1.3735568449615405,14.500645968785609
11.611770431329486,3.5933222741746347,-1.5170725711133388,-9.227455918228257,10.20726362565127,-0.45282105248797055,-4.083662162291267,-6.688722276821042,-9.683845257176777,2.070666545597573,5.6557381077730735,6.4180048199233894,-5.256675222193825,1.7646991743675153,1.88286784976947,0.5911663320832421,-1.531344766446483,7.516608234480136
15.123425544576985,2.5831824361457585,-7.165265916632025,-8.14564155433262,10.89088793881821,-4.326727651809378,-7.31396209768724,-6.299972498250865,0.6234448717036121,1.3974332468665465,-3.0983039770994276,3.473126368241373,0.16207816534962027,-0.8558366586616166,-3.918623431458898,-2.437392384183327,-1.0045688193642954,-0.933507941250634
7.795239404465365,0.8897880351362435,-5.294017515942382,-7.650800743722174,12.94263399935312,-8.20121836098529,-9.6661448528168,-5.031882823127813,2.141894414626427,1.1156451062238846,-8.240204100719998,0.7228737597600068,5.581524020215179,-3.9645793922815327,-8.255667746976973,-3.31788891855876,0.40206739830004157,-5.771496963925426
2.9086424631473013,2.5171349297653496,-6.352674153624884,-9.207794443619001,10.796015060638812,-5.826202089324763,-11.921451264603864,-5.9118345016754095,0.7310040170540493,3.0807996560356097,-10.941861487389405,-3.004633390078971,5.923482103289339,-5.120087321198883,-10.4446634477613,-3.2222041293200165,-0.9247917936843333,-7.583301818606915
8.080916019350454,1.1174982461610283,-6.532552267008326,-8.031387494169039,11.775365359488948,-6.283852483373787,-11.7360738275361,-1.9084617053926696,2.250274455582076,2.8006411179360167,-8.859496370499649,-1.5569446987325852,7.438069810644473,-2.1738919030146384,-10.778585954719347,-2.6386146097500487,0.5813252950839689,-8.322073518069267
13.25329017104407,-1.746570225301451,-5.540646664735464,-7.441936423177417,11.779062810922719,-3.4217352672997428,-9.40296337807433,-2.6898723294329234,4.746587409282306,4.669767858716348,-6.387712703554655,-4.5045057066633,5.730710629091731,3.213823594696724,-8.671490702941846,-4.008551684757144,1.5023780741309707,-5.058075749003624
11.199069236016948,-8.809459556309994,-6.501972801245904,-8.904299958082792,5.924222675174567,-3.1969754869296927,-10.58624583706164,-0.7364121697218725,-2.9130029194476474,0.6802450348260252,-8.409402789552082,-2.3745024054978767,1.6803457667909405,-0.7735290173315377,-7.834373377920439,-1.667854190104151,-3.532829023595145,-5.408607830405878
7.191748018888351,-16.55546375466677,-4.045322495793349,-8.512160388894625,-0.613293292634931,-4.144709488303333,-8.254540304919123,-2.493484033273779,-8.618900095598924,-7.996034841565137,-4.475193378617822,-0.831070304735146,-5.103634446839052,-4.8584660086802245,-3.7749791887045423,-1.7689474749341736,-10.227375450933458,0.8803976489363574
7.8720294306967356,-10.921841208061757,-3.1512077964913154,-7.9256904734741465,4.178417729155647,-3.335207073431073,-4.946923836439504,-0.7344072854272388,-9.734308414780735,-4.268967837225018,0.04373522590386392,-0.16716902128001276,-4.269488533947074,0.7247850982539965,0.9675896576436385,-2.2610066881198243,-4.225593571978557,3.8478561572020524
12.55628561415273,-5.385333349860775,-4.6985154581805135,-9.976955142833539,8.678084703032841,0.9893695078490738,-7.108782537903022,-2.295216056210913,-8.310003653705472,2.4863021775027287,-1.4933475550093858,-0.18746930556216057,-0.8953982351402241,3.378374332390284,0.7291835474025161,-2.9487040279119467,-0.3714801846922742,3.0054842019706145
15.385028226383307,1.714267767661978,-5.855137922425827,-11.540896484415233,16.40138556603351,-0.25315072467325184,-8.782968990826623,-5.515721275571347,-6.103788341719433,0.8438185584674585,3.6090605891773606,1.3541707812258723,4.725683689241739,2.418696059128009,-3.7089360212239524,-1.5858991522111003,2.5068371755329104,0.40409976049550966
15.96760211595121,3.9315773043544047,-6.035095486384419,-11.347952968588737,18.656779990724466,-3.254116637119629,-11.531981268822967,-8.638076333080843,-4.092203080436278,4.475663640856726,0.40932184728110155,1.7233485575771734,4.195211750345615,-0.005780856122907352,-5.413069673920608,-3.543755468628901,0.40537063704146026,1.0242532207378314
10.592988714841015,5.075272761258545,-5.336012482011569,-8.909824324658814,17.88570928034766,-6.158031492210073,-13.207322851840416,-5.607494260459829,-3.251788486836798,4.006692845221123,-1.8150817043843779,2.482602015374715,1.3218576691891142,-2.430191696215525,-6.238714417231041,0.2599091200667263,-0.035174094617919316,-0.21225207618038233
8.929279609633454,5.047721643326783,-2.390647015579521,-7.15623054443039,20.33826586340567,-2.4218266297521787,-14.199598027262724,-5.4084802886579135,-3.582507815229814,5.589342027204766,-1.4039713916593988,3.8272608725794592,1.9651053921427888,-1.3388591713706117,-0.6193787918487628,-1.6985065112188726,4.993834135185786,2.651712015258904
10.976449879092323,7.46228517370097,-4.425638225710546,-7.552024897309071,19.862008439320128,-2.983168488694867,-14.801752940791996,-2.1815633762793176,1.4587442062820415,7.172796619415053,-4.021498726458467,1.8510298304789279,4.464792547864272,-3.665484159912242,-2.7154346484442144,1.8116498940175685,6.117231486742988,-0.4425955920441922
18.68762918369243,-3.9898548354795578,-3.4330177142616667,-8.437012371995339,13.722515893675762,-4.521693073323298,-11.791054728990044,-0.8096241381503828,3.08280755958919,4.069482815925777,-5.859014107432142,1.534467993816114,5.5982325869212435,-5.699073841505125,-3.4447115046690295,0.14569671243610394,2.749050669001369,-2.0731803685539014
8.624934542251703,-7.042709654523358,-5.858162574200625,-6.002527103726084,2.2127563544657045,-5.279559867889278,-8.683154274203156,0.07455192567345925,-4.862718903379315,-9.18943536739479,0.6031265068028175,3.170562973715211,-1.177624548911567,-8.611522383005212,-2.6118930696455327,0.7256341395798973,-6.5755953217221474,-1.5564317407873873
-11.00840940888817,6.311678934629801,1.48275589234572,-7.572885060697569,-1.0928500729529151,-4.96379410943025,-2.93892228955826,1.6428635669700367,-13.490944488677387,-8.38484117100527,6.575724863512207,4.513201153501742,-3.362569942359248,-8.984810149631182,0.4666257899657129,4.528051397023867,-8.184643805857355,0.9123412987343107
-19.899618423337778,23.37782777526153,3.2575062583382772,-5.237794235734006,-1.7608010090652524,1.40615082712078,3.293199220181963,0.28197998879237174,-8.739118440377617,-0.059806238957278934,3.464898493161696,6.8319475606419555,-2.8120828351235456,-1.6430781748760177,2.6657984639346903,5.009891573064946,-6.765687275021431,6.798011416665661
-1.3492447858947196,18.764747013629517,4.349009273301026,-2.708233215159578,4.115206084633511,5.82234244907667,8.548372619071877,-2.250254194139316,0.4082831322621874,3.480790854665845,4.845072234588414,10.32213206429976,-1.5769583146671373,6.382314992319163,6.524727371697566,4.90558290926303,-1.0491960849840543,8.19030828471641
12.317973543114203,10.929771627368217,0.7533312741017335,-0.6677901900064347,11.163987823545062,9.066045181745467,5.892926963476638,-1.070946992623734,3.013629096223032,4.776047772210413,4.466149969859876,11.077459416223606,0.6357939221437572,8.5482994971904,10.480889928361863,5.387029628416951,3.3006598572870427,9.874467833092403
12.312813869771917,1.435447050076068,-1.1817410351321667,3.813283451744619,8.350211310057254,8.109871875532109,7.3387929894682,1.183147267862676,4.936419371538087,2.8493832631876574,2.4257889769692023,6.168211724703977,2.751955436082068,8.07757948367738,7.795903383786536,6.356585139343437,6.088544101571977,5.893374600343696
12.795622344125496,4.344508947257531,0.9852693297666635,2.922385291103053,9.83424004332745,5.883557805839407,9.565636277916497,1.6799584434263004,3.442272464897032,6.294674340077071,4.485795745284155,6.825043361932278,4.966858021409392,5.751415569163071,8.91914729629815,7.325971683607888,2.4315486899623022,10.895696302696859
4.293571933573998,12.625620605117588,7.6450266690290345,9.062065468405699,14.248856308896002,6.977020094463483,13.257089757328757,0.5171482419658089,5.074291885106446,5.83443129727404,11.134459077317509,11.583102416365435,6.596913415080409,6.648008907552932,12.190441474682657,9.564750605306577,4.048581517517288,15.115665616615242
1.5529551126568695,12.020772028485924,11.47323364458537,9.243862005310172,14.660350702433636,2.6010657173113287,12.456059985854246,1.9916608308276307,4.363678763634252,10.648477041700158,8.309064773850308,10.96960221179007,3.4428543058332464,7.642310446571787,11.945638395319857,8.678334088670178,8.009889498990812,11.424274185842739
2.229959808078878,5.362057235169177,4.754961764850103,9.229599315455314,9.115558096726708,-1.0918638647986711,10.385281013069186,4.248002368165103,8.048851380789767,8.236615895920053,-1.9395739628791635,7.230684809658636,-0.003048154717199658,7.464768158663467,9.2589746052143,5.936283003969706,4.452020051891242,10.661537814106897
1.441672704534985,0.9504031810852291,3.9944018753340726,5.50361675403305,-2.2878745278824297,-2.343925262019941,10.169829028528156,5.040047657557387,7.438304679219503,5.239568977898955,-3.009640370377675,2.221861228181781,-0.6157315917071102,0.8418626307481711,4.7163979417804525,5.635547915329341,3.629015128086462,2.8663736234550736
9.344472495646052,-5.120481201372405,0.10941666496593272,2.5581885935534014,-9.002922394596094,-1.4480873999600314,7.708107295889079,7.492846803176075,10.83297996404752,1.3643575873429497,-5.350511422971342,0.04477042430852052,0.9212140848541663,-3.5348687507429797,3.0054813116613865,4.35811765870389,-1.295187764835251,0.538978931636005
10.60606775294015,-3.6707503026859296,0.1313956838027308,-1.0715328431937152,-10.73662380127982,-2.994259550627432,4.0743791171551385,7.114145759136198,6.123350405246777,3.642333270945678,-2.712090247255425,-1.0584131381396507,-0.5680575052247261,-2.735695307413091,-3.1004466979332874,3.8618410349224064,-0.7501506807091944,-1.8871309078451262
10.695265779269686,-1.5364283926214455,-1.3108047983157518,-5.5808444388851415,-7.391332847887726,-2.6854964217227426,0.04993435351240816,5.954758638604264,0.5361212514174245,2.60068923465272,-1.5397859019795899,0.6701635652904432,-0.884250116852916,-3.1083717130228288,-2.1754291604884846,2.0959147128374602,-3.0368020077427618,1.8381459754673986
0.3345552273938992,5.481784402854432,-1.7757096035004865,-7.454048803732283,-2.67805578453424,-5.892968791519497,-0.9471784003808894,1.3779275881590936,-5.245071328138444,-1.1746343316209953,2.9516329571909363,0.05465392551724424,-1.7851900857214726,-4.066953129801758,-4.375869751656593,2.0877375788711596,-7.178584694032169,4.292827791839093
-10.22202708039521,8.594708031623401,1.9594180437281126,-5.226260969467305,-1.4796919923284957,-14.569826339394197,-3.213872300100106,-1.0498555222319403,-2.1380260222336793,-7.000039740666558,2.461260783781118,1.78264300454086,-4.638073223643381,-8.931804363821522,-5.209511162154082,-1.5338574044690179,-10.441102222739826,0.008087512839305755
-9.939182226801673,9.950828853739303,0.3241506165614202,-2.999087061000019,-7.800221406483786,-10.063435391534089,-2.2578641966914312,0.5269065964868993,-1.4710097385405267,-7.355887730730535,6.364243284786384,-0.2006356330839536,-7.099101658481642,-9.987965624558663,-1.9419354460694227,-0.5656116691460489,-10.773562100929995,1.777095474083234
-7.215501376069136,5.350879642020179,1.9123998892706644,-2.4326896328358956,-10.701989903432569,-4.48335024569727,3.6787119980882217,3.3737969843896356,-2.169756937031975,-7.320387745880227,6.847964191970042,0.2572690132599622,-6.23853152382225,-4.793995130075842,1.2275757460311651,1.672119741181488,-10.324454491389066,4.423997783671641
-1.1720901420443366,-7.939541200256716,-3.3345511157307115,1.9417838287306752,-12.919427129711718,-1.638217129367595,2.681638387080124,6.709553015315956,-3.5506336087842105,-6.209942783652392,-0.3845138270859725,-0.35930840984683354,-5.865003475558248,-2.529722219550268,3.127130654821654,0.10114218357010674,-10.753980674728515,7.558169774959442
4.870663302236453,-17.42022827191018,-0.3773805661578065,0.6515516046490868,-9.96029008198371,1.8899906431991385,3.8331108077971185,4.772366840813893,-1.5119854316783452,-2.7550096175548813,-4.5908358300392225,-3.4175630519785987,0.2715886046224212,-1.92559808693315,3.268441642079577,-1.079253949975969,-5.616749309519729,7.17565035565128
-7.251605422207936,-9.614399225988551,5.901053955677097,3.5600645019380632,-8.562975965083123,3.4645199953976134,4.301080376705351,3.9099899089370482,0.03990661173799226,0.11467193958810507,-5.380367032610346,-2.179097709365921,1.917192282916931,2.682524324203704,0.3819590818902946,-1.869061373087606,-1.6511637756985134,1.420948677978831
-24.550441267193484,3.5637153997659614,9.934290239782712,7.7376093181501115,-10.29002182280865,-0.13732848107445284,7.112962166196098,4.122420073475354,1.7886746900859771,-0.1400071754925012,-3.827338452562998,-1.1361553715942216,4.052362109170282,-1.4008631386255037,-0.4541136155365888,-1.389353419253374,-0.5174247635765385,-4.627726591349747
-20.65827843578899,6.781863719336993,7.132443010786783,8.398975707525468,-11.723419994599327,-0.028694325194807746,8.655444439374847,3.94478859741188,0.9999294093994897,2.1450939362717505,-0.6153498442090422,-0.8746694996711213,-0.4519076316247195,-0.5036788604505067,0.17427795314627204,1.6294272558880805,-0.7506850728773153,-1.595226250806561
-9.051908733146188,1.7978979314044934,0.9135611988517527,2.8097657580348394,-9.054531880654878,-3.143270903093253,7.366027496107302,0.6426756306696659,-1.8380138798515513,0.3292407085530119,-0.4319680025982404,-1.58994267102758,-2.904069249042653,-2.2432286539068302,1.290557146261705,-0.3323589003167602,-1.5697014751141178,2.21754790917824
1.9677366591690513,-5.626362855719802,0.06686893819019679,-0.8267516832797899,-7.752204196479861,0.6753530021172462,3.1470772072735147,-0.6080622185505269,-2.1352154438429927,-0.9976615154503907,-1.1287176067232054,-0.15691437569303313,-0.2767244869251728,-3.494467001080624,-1.2069004523429938,0.4402557346759173,-4.732331773549452,0.2675333982081025
-6.544966700909874,3.650010433158911,3.225184868426553,-1.43632296212105,-3.226536408359249,2.3450138419892568,2.2487119983049464,0.29022867664578866,-0.575254241042483,-2.421567824763407,3.8374752779947796,-1.946747573703592,5.379321908381838,-1.4253216968385927,-1.9469185609041806,-0.34966354209141626,-3.109579204588927,2.1251948305250155
-13.788942588177777,3.3570972807562947,8.435380652395159,1.4693589469662784,-3.7784496508951104,3.7212149888391943,-0.7002213584585665,4.11880562925613,-0.8690999214933086,-2.477620968759662,3.528949409462437,-0.7093342273386585,6.739746698667417,-1.1139975877087007,-3.5662556901427083,1.3018561878927142,0.46646371731262226,-0.21739641866677495
-10.291412188147373,1.7958167553830502,-4.517670004248433,7.206707974628424,-9.79858806388094,1.092968635556292,-2.2816800759537608,3.4556752851592836,4.014628510039823,-1.8494341817221147,-5.862941115108999,-2.108810675662046,-0.0040952424798497145,-1.2909465201261061,-4.697703111933269,-1.5388793446126399,-0.6449471702806366,-6.271945591730262
-10.017453861189495,-1.5221091061322785,-7.801485813419379,4.2521286580054305,-8.591458552660361,-0.7544896407853932,-1.6167232293000167,1.3282219893529439,7.142254416094568,0.04892972305988508,-13.30286538704085,-8.977238874918147,2.1402490667183005,-3.128063961867719,-6.708468935104048,-1.9381656031719,1.2711319888873693,-11.54619059056757
-9.060779052750615,-4.252884216990553,-3.2715390694656685,6.57069544793392,-8.84861304618361,-0.746918412251905,1.587643026191519,5.549058858125338,4.509832547916391,1.6549374490726978,-10.099277949627021,-6.079998938703577,3.211695780916571,-1.7424656192738168,-4.325035059081861,0.3969753232881288,1.1364813117749977,-7.250928752263624
-3.808071950383602,-4.9316325606014955,-1.377183793788814,12.795217307384803,-10.374749044614902,1.7992927489718564,7.038465434070468,8.40321783105996,3.930003376160336,-0.15646834221686512,-2.8928982366468237,1.7976922052459343,1.0617797103004587,0.22908667376700897,0.10881275787948286,5.4665478275083546,-3.49035988142874,2.2192476688701914
-6.661885639389199,1.9104888212130613,0.6160203007329936,14.234172380662125,-3.794736391425681,1.4153165867818949,10.829453671523765,10.086007306092522,4.0355789401021,0.9624556046352621,1.0896081868603442,4.011153131553279,5.846910360703903,1.126408337826169,4.249288620590917,7.313433853819687,-0.011560069040967402,1.3367640455946526
-5.415022200077946,4.066271521726841,7.298009937529105,13.719651819829089,0.5396916511276157,2.4957575283951026,10.519182816272421,10.597419710922935,9.318834809156769,5.207014717238023,1.1646446513875994,3.9784169011570443,9.070868303879292,2.9026510213470917,3.311162983873796,8.86736939758632,3.0766406213290267,2.699474913879559
-6.41525384561063,0.3638313740694099,9.78195305820498,10.079779084624487,1.4566294871785748,-1.1118160200114997,8.93974519298571,7.1053725238593035,7.6702298321603894,7.108365296713383,-3.6443584310440853,2.676072973391279,5.460138963674245,3.31168337918593,2.567953380677291,5.050155460443294,3.332782171890391,3.377654130808529
-3.119530595042191,-3.435016630679873,5.821743275287986,9.467007783284455,-0.16501583975711676,-3.743249196578899,4.138003121841906,6.055268057576878,5.632850309963965,2.2718985884434773,-2.399726054162956,3.229180988539008,1.8507669648506342,-1.1621767333185111,3.289209832844667,2.3072060786748887,0.9521637703963939,3.371307761032786
-6.270221975218826,2.728482676902625,5.3784910454134085,4.8499962307758135,-3.1533639664924786,-3.543039120927925,2.071095121416189,5.0056538017690135,-2.1644626841212977,0.36572022252429104,3.7266573035789516,4.758833135824604,-2.8314805979376763,-0.850816729491954,0.299071339035052,3.763571824128523,-3.9675729128391986,5.3172008570984985
-10.691485373747444,10.944059897241928,6.010773141083221,1.5022776147480674,-6.7271653884347415,-1.58541524803708,4.106245157408062,4.054178029562625,-2.537898395759761,1.975765803744774,6.14091920065267,2.1868386706220546,-6.7311050063131095,1.1207118223672308,4.535203838815374,0.9230318955987398,-1.1723810091210556,5.016056667424643
-8.863691919724,11.641263669547767,3.1286953534570854,-0.6737909781188955,-7.663726993116239,2.1296279618594838,0.8683250015812782,1.5406492429522007,0.8015639260671192,2.6097682608658666,2.108651886319445,-0.28750794815604075,-5.355849139861476,1.2367261873878568,0.7629987251010573,0.23099944061887845,-2.7718359163084445,1.4913038728960029
-2.349382082882974,4.917758533364257,4.056607061836157,-3.0454034836791903,-3.4239597429013253,7.504438145554426,3.002042364002913,-1.5583655083396648,5.412494681186366,0.02158836108041129,-1.534093578696413,-0.3204094349971742,-1.4401292318424588,4.966055508281061,1.1896721734591602,0.8085568083883883,-2.515857659877794,-0.7647953867527881
10.999898280087034,-6.101401393935017,3.2280352289755374,-2.585155939189688,2.574103358177993,11.511630556720968,3.964341889259803,-2.4108025346404194,6.412019779286393,-3.0543685617048384,-1.4669445047975045,3.6506694630892866,0.4261408359105938,9.085989831248812,3.5690946160866948,2.558047986242255,-2.943562650946928,0.6892085003201343
21.613674977984253,-13.21295986581136,2.9867830421790975,-0.7579008429173646,3.3967507675113993,12.295713136266926,3.950551480174303,-3.8487474833928896,8.3900649235241,1.3898206181794546,-1.8891739227777746,2.7388856924448586,2.0007997012968026,7.834717726361519,2.7254040721889723,3.2333464006826587,0.3396324761431426,-1.9592975492030296
11.229935423968369,-5.576902001049005,-0.28046919409502546,3.217636908138127,2.0713605421236347,9.66137519900335,5.011495281199461,-4.602661311788479,7.635646892797682,6.225129133846445,-5.437530754470767,0.16695586472569768,4.944027668984596,3.653677695523441,2.7602236597925485,0.7836406862078187,-0.674221684100907,-0.11642625135484819
-9.60429915483024,8.50586967361194,3.4850417026713014,6.997684303013288,-2.2809987619629286,8.784481546963141,7.244841804128125,-1.0592195962798137,3.660486866998744,6.7639735556242275,-3.713439023178074,2.6732751249585864,6.423748400412911,3.2812485610017315,3.087604750887337,-0.10349671948278338,-2.078830014579275,2.409176708652635
-4.267390442584142,6.964710938282111,2.1737711556191748,5.992339870516245,-4.484478596172957,6.8329620607094705,10.94357420325267,2.386967025024526,7.402260589050569,4.47120792153005,-1.2091441921742359,0.1991072033648269,1.947703374570219,6.033820644229109,7.223223579547919,0.47427709443737465,3.3524659910972687,0.5393150566917245
7.709099768467317,2.5927904756640965,-0.9915609642092491,1.6664815841201222,-3.9531440949872385,6.150606610576477,10.541210380128824,5.638228121627472,13.196826936916601,6.671150522946544,-2.7098646920072422,-6.181301903875134,2.4535564098683613,8.39570954897054,6.182565414685035,1.3450696437927545,8.588295002422791,-2.6986150124880672
9.528026882273958,-3.3403366879115897,-3.960128427006876,2.6140019975498903,-4.105027635879409,3.124082675208335,2.424422189688788,8.401577435898803,17.137883063109655,0.9612559955025206,-4.797568534341082,-8.460006759426538,4.230309699847897,3.0425787576699324,2.504728631487474,0.06743757588261223,4.155842407789857,-6.0350565847494035
2.3612709612804865,-5.170517532060858,1.666647341026252,-0.14960001531903266,-1.7174351656123097,0.19483737454447003,-2.1761428646073213,7.258980691039472,11.998761902822732,-0.5489283896194084,-3.1753038289320026,-9.566728929404585,6.496697037450726,-0.9434081608997396,-2.247766027990255,0.25471718677522004,1.1880769868909793,-5.270720495495624
-9.103608812825122,3.9382935412893914,2.997956792878061,1.3836207444349142,-1.0873185225928776,-2.1488372245205856,-0.5260615256112553,6.897995720253276,6.76398019958138,1.5546382907064906,-0.8704489625102725,-8.231907262059735,5.346403926473646,-0.730183263847652,-0.8482491260795721,-0.6321930890459799,0.856878247841725,-0.7962313164841779
-8.557781705456298,0.05995369060521627,1.3033619255073638,-1.0872335904025703,-4.949105606889168,-3.0280183471041484,-0.34028958608528015,6.34203112181462,2.507776691600828,-0.15004497030021202,-3.4494833398904974,-7.189948061215015,2.83023741547359,-3.642083839018545,-0.4257392581447923,-0.7377967366021085,-0.7440765644295393,-5.30708882375374
2.8268480117837917,-15.145352297320112,-1.4639718648670508,-4.339448017227143,-5.099557330429491,-4.49351567722074,-2.790715105177065,3.540260061787308,-1.7464234768418114,-10.936509006528956,-1.3419364273953,-4.097055256922241,-1.637755032416087,-3.6243370306676628,-4.0076301664602205,0.4261941784763321,-9.864895742370116,-3.0803903575614036
6.397641062755076,-6.716150528968376,-4.913403811283109,-6.419858625446189,0.6097855946910546,-1.955412826644118,-3.189762590174941,0.5434805190107577,1.6186849243404655,-6.585647230209752,-0.8955491261056738,-5.789260471024587,0.6339587603975785,-1.458212047616648,-1.5351786477662654,-1.6324773681593392,-6.095124292666196,-1.831090834754933
-3.997850609645551,10.796558364792634,-4.45501111309353,-5.9612484195188244,3.7803466049986643,3.121426444009281,-1.6350866727270912,-3.2342687657083893,5.2787718429769,-2.429737900838715,-1.817335809334121,-4.649249910325419,-0.7063489508169476,4.516465150029882,0.6438579241201358,-2.421556512787813,-2.1302808999330223,-1.754499124127996
-3.945201917042436,1.2594129139744328,-0.7723897349974012,-5.307395008205056,4.021483906691333,5.756459465336377,-2.325967929384622,-3.496062279448834,4.839238395843138,-5.402493708883944,-2.8377332606174024,-5.364585172667438,-0.6781413005731447,3.9479663100043987,-0.30259941443060956,0.9886875681666227,-4.318130910387973,-2.9482662970027746
0.7937710088957006,-7.299813343729852,0.9586075078935203,-1.626216257834042,2.700395101380292,5.363741606703594,1.0853481372143414,-4.929486817318935,2.8391842206227977,-2.808421652954685,-5.714568029723217,-1.48984562277383,0.523257761325965,1.6215126461049056,0.7036470880321701,1.3715805324894919,-5.627329042775376,0.4470787805286245
-1.4998696283696342,-5.2130022754130465,0.44501399660771046,2.445536025530292,1.965539779766027,4.287060170902982,8.012915611073542,-5.972034001621225,3.2825740351337624,-1.3859190895491198,-2.6352079655321763,-3.0837688617504533,2.018919519770752,2.224667376549858,5.225116300336015,-1.1752216365618433,-0.2960804111178992,0.5212659385471125
-12.681629387380838,0.39083269410451216,10.089368512350985,2.2202969930787915,1.3286186124896677,4.6748867073243865,9.76519527869214,-6.526061734427039,0.1146243087869534,0.23220899106055642,1.2244998004391068,-1.5524642881854978,4.98072722183858,4.292555835987944,2.5194515948500085,-2.550095788623716,0.9332520108447633,-1.749120585798394
-12.829337291961322,8.437457779137983,9.77418154532521,2.7762753018413875,0.008359109775141649,7.113168648685722,9.564891355604264,-7.372847739393803,4.175339549495284,0.8740562940456998,1.860601162045242,1.2485803287056854,4.23281042866644,3.8212018618704757,2.059448312752864,-0.7998892286445933,1.9669664905145376,-3.922630400349194
0.8890735922356381,7.207945273314041,3.6987400494308726,4.504107566059605,6.403316411666057,8.867489988319997,7.216686283923442,-8.024119262617013,8.628672303710838,3.664657033778808,1.714552993452772,2.2919841500473987,7.490119827136124,6.4747453136951,3.649785281144425,-3.1512770007091087,3.0003673865871994,-0.23744989698238717
8.746732707117093,1.194552091875476,4.0702648342858465,2.520911908745542,6.743738700635804,6.812803485365819,6.333913503714969,-9.16349656144714,7.322178312389071,1.7679558775928155,3.5207855077989416,3.9215418441938086,2.0571378476841744,5.514792804312239,3.677120182180432,-0.5220917059331409,4.32641701082068,-0.8499770609520421
8.692820935225512,-1.3018132209804207,-1.6114323846189933,3.5650769987389745,3.6663745542162136,4.757761177648673,2.521970899121494,-8.251894585191325,3.8691863547353424,-4.132456565087609,3.080029474609962,6.527893064059096,-2.39803114871325,3.382778274289172,3.215681985498339,-1.5062170653047664,-4.50427353064115,4.591515598558627
-2.104742290881572,5.090025444257266,-2.115709879243812,6.074083056142402,1.4681541827081386,7.292276756952489,2.616895610241166,-5.875276072828528,4.715098710466746,-3.977846675544315,0.6852718042154331,5.521132491089206,1.9372195820893816,2.4224776834894772,2.9490684625863386,-1.8067152511173057,-5.229717323997983,3.196213463693829
-3.821441358956176,9.04177040946837,-1.1535610056114765,1.6493679489461637,2.1022220831851084,4.94354907342494,3.884265389302775,-2.0336574181834814,4.781703372860638,-0.6003025728295965,1.8053597174373688,-0.2706245236676567,2.660344028922233,4.196404835910888,2.974930708819789,-0.9353004459487608,-3.123442624764919,0.921245805384206
