Fp1||F7,F7||T7,T7||P7,P7||O1,Fp2||F8,F8||T8,T8||P8,P8||O2,Fp1||F3,F3||C3,C3||P3,P3||O1,Fp2||F4,F4||C4,C4||P4,P4||O2,Fz||Cz,Cz||Pz
4.200093041240013,-3.990148683070096,-2.807059364459036,7.3783751898465,-0.1742863061049782,1.2310510779785275,6.315774945010123,-11.634410199657257,9.097929136678829,-13.446525368024453,2.8808943060726957,6.248962108806689,0.6885709343579238,0.4689634257741595,-3.3714048193260595,-2.0480000235188847,0.22906531751234027,1.1496831667082095
29.07012306192646,-53.0415162024227,-3.551008781383601,8.96782822192294,-26.19960494861131,16.4471649266487,-6.316088157761325,-0.346714103752948,-24.997823263546945,38.28038353265917,-18.668379598138223,-13.168754370955472,3.50608442566273,18.543887011389756,-41.06975312483891,2.604539404373332,20.91746343741584,-8.511528203320259
10.87314040618837,-33.44052085362033,-2.1462051977363803,10.558155839843197,-18.24078193213039,4.51492094616541,-3.322532739485654,4.982923459080411,-1.0844035104936074,2.895266337244255,-11.896640917143273,-4.069651714957903,-25.317753066351997,38.27895385580683,-26.912337144387088,1.8856660886287777,14.456480933633895,-3.718877788826484
27.442453958588708,-43.91930909236331,24.259321212925187,-12.069740290408614,-30.107314836063217,13.9702294324174,-9.118017045106328,8.26085933111818,14.235636346205956,5.400101312626617,-17.624892119661656,-6.298119750455015,-18.399128895616457,37.31062497079567,-35.70512798896308,-0.20061120378051722,20.690534795363398,-7.714935378043134
4.265297551328425,-29.98503184526423,15.801434408526813,10.128182506919961,-18.536906947041672,18.250198268868246,-17.354811312825934,7.338671455629942,-13.706175211577651,23.138364797847494,-12.513000461043195,3.2906934962576466,3.753803681538508,19.838266418407564,-34.049319806315985,0.1544011710727755,16.3771421705043,-2.5307047985877693
30.30796147716132,-53.1622338626557,8.51589912531905,28.323073716473793,-10.483176011447824,7.686724117107314,-19.341400107794605,12.079840745267735,17.044868258336752,-1.6055945039861754,-13.944110812368681,12.489537514289298,-3.7815433633212656,26.585238699128944,-31.32019586716946,-1.5415107254307783,15.872050389644397,-3.7914528433293473
30.17875875108954,-45.87192576863826,4.355928688396089,7.846454279908718,-21.766756599172954,-0.1417871460638044,9.043654901059421,-3.0042529411932914,-6.305897861151827,13.591430197681273,-7.660260140665372,-3.1160562451358356,-6.629672765615265,14.679876281583038,-25.076451666291227,1.157106365030021,13.413512488613108,-0.3642258451739626
20.284277406683948,-37.02096358937579,3.1262659752423607,7.195328350568532,-23.09040643905751,-1.914960002781561,20.729299479948686,-10.862364728251436,2.0827047618047527,6.423875712349261,-10.458646604134636,-4.463025726928745,-12.896203884817767,30.314372074406776,-33.77553771478361,1.218937835132162,15.642314623028053,-3.870323908953062
18.69128626493381,-41.648802213159584,0.9206595138234466,8.596004137732269,-28.321603412211118,15.06272380611404,-32.429755709621226,31.279647190723004,-10.133848330027298,13.025181732823881,-10.327434775752767,-6.004750923742877,-3.8308771709315463,20.65596983036412,-29.78044965738956,-1.4536311269569606,12.20679623825363,-0.3447195248359849
10.946525807918192,-26.942601648525304,14.926929419539235,-0.35403534943987314,-15.780406912212932,5.966373273630818,12.264261030599924,-16.033417760602255,-2.2322557331632913,20.79757636657687,-18.69264654864563,-1.2958558553052981,-13.809243304692878,36.193801630609045,-35.55260216842986,-0.41514652598761304,17.16973184327767,-6.584573611122297
16.972260101002895,-40.55949740204791,25.515927435671195,-8.424134906165165,-14.08061134408008,7.417652332887286,-21.265579025805536,11.26349685721412,-10.052884804084407,24.66293437870297,-15.046222410842852,-6.05927193534492,-12.85040177881721,25.950606735380397,-27.556612521031916,-2.208633615230749,12.757472648890058,-0.9098977389895846
16.065132297281263,-42.166998582372365,11.398323327828617,2.9406902555806615,-13.065887039286373,-1.286868890125258,-4.892343916475337,2.524225086256356,2.732966571783142,-3.21112232509698,-9.54463281051636,-1.740064137882487,8.030134250334504,5.063413589918535,-26.69136782844013,-3.123054771357408,13.814055020641915,-4.317136171693839
24.827041202973433,-38.11301140322005,2.1644690258062385,21.14260488345339,-14.00585861290548,4.46257080098221,10.504260840361997,-20.180529619563174,25.675942489460343,-20.636371637179053,-4.434070740392341,9.415603597092554,-3.219235466412912,14.64620856072075,-32.07807710940246,1.4315474240575075,9.108898619839785,-1.278738596454724
20.01552650589495,-45.4877906720427,-0.8183709385732558,38.85729074795732,-16.705283194496754,15.290838673023858,-19.70537467453025,7.701053667361213,-7.826514030757322,24.927129459162963,-17.292993832932208,12.759034047730726,-3.726787242907573,21.007148050353216,-25.357211740354728,-5.341914595644439,13.583697345277576,-2.0487983182186453
11.29878512104746,-34.50587297650822,6.649141885526184,-12.568632139203135,-7.394490583222136,-1.1267673072868,-8.215253187694243,3.4529242083620098,-1.4838499129451899,2.520430647004936,-8.765396602165094,-21.397762241065163,-15.95382499984941,28.540906039848792,-25.181524345293692,-0.6891435644575039,10.050748440553619,-0.7678817258496271
9.223932371410223,-30.070126306153117,4.742541284014026,12.277221662701717,-24.74601551710985,-0.16065031633162086,6.497453574490427,-3.1392516829290438,-15.0625813189587,25.328932277201872,-13.519839916757853,-0.5729420295459198,-3.2787193028498445,12.54014881867333,-27.742484949760904,-3.067408507852495,12.182194856442205,0.12253668692600295
9.494105775748551,-36.96592099183519,18.462263130889735,-2.13424501235294,-16.513035087727097,5.0054039309731975,-24.786777198062598,13.706225322718005,1.2427595297760368,11.124896938099862,-13.392046508931246,-10.119407056528612,-3.397380368268685,7.2828165395973805,-25.81354021243282,-0.6600789909034819,7.477904985122318,1.8919763720409701
25.97678116882954,-40.83770700099179,9.624184750939879,4.06117100506049,-24.981417205768725,6.75410052838971,8.871225874892868,-12.222536345719664,-10.185874236506537,17.52647128953936,-9.846944109392547,1.3307769801630518,-33.98588106691052,46.26558620763314,-32.18797096878942,-1.6703613200475285,12.051464855832961,0.92706960815944
8.86658642109605,-30.064347630333526,0.8849548541607792,10.745982759580597,-8.54902931311331,2.741662155700524,-18.507043011112874,4.91567339726442,10.320415922081086,-9.178021633778021,-5.619010255781411,-5.090207628053204,-14.671922532960165,21.38141035791523,-25.674161850555375,-0.43406274556895763,7.836251205659107,2.110671913037998
17.441843703334403,-36.677712533379264,3.0846348326837103,17.920196817102305,-19.560483125556274,1.3666625250135866,3.626957375946594,-2.458244910520201,15.104671633188994,-11.272777222184093,-7.349031233461627,5.286099642161803,11.965699919160864,-7.798419961847786,-19.456019305159607,-1.7363687871773756,7.527828654134002,5.052120697505325
18.303678322190088,-35.77520529462181,3.0394812054951097,26.462738462524563,-15.827696118670321,-0.7889115919081857,-8.810107381887645,3.156337818737697,3.0926760684511505,0.4999333181506076,-8.10336654984096,16.54144985879047,-12.960650959366653,21.617748122521682,-29.940152419693884,-0.9873220170968429,4.973817697026198,5.161470420937646
6.471616458198433,-29.603077613993687,17.937306839087146,-9.81849870095791,-18.054168589173024,-5.287576744130088,-5.719836279768035,8.38036817118864,-11.652838382888572,14.518919086342446,-7.7844165843460615,-10.094317136811055,-23.92265080001944,28.867030374448206,-21.18861871586821,-4.43697430035,4.3735589940346795,8.102838146380915
7.922686378552109,-27.82956573127385,11.156508912148617,-4.887041846453794,-11.005350595493633,11.406189351858755,-21.575430777064618,2.373894037590839,-4.229130680486542,11.252712141352024,-10.20089034685808,-10.460103401072052,8.474661604669839,-2.6523235629253037,-26.502810562305005,1.8797745375451065,2.5044046512355655,3.1338404981344743
22.852271388570266,-42.07605691807953,14.826532755831073,-1.8099515221448552,-9.232301035847819,-18.091447472463535,15.596844936807047,-6.269146391748858,-4.031163805452753,8.37744339102264,-9.68869504301092,-0.8647888384202123,-8.836557973533733,12.803246205682209,-23.32389000146917,1.361151806160966,1.6125399083383083,5.098421938105988
8.58400528221267,-29.861546585029053,-2.6936815463647914,11.424676264249765,-10.977234270575291,8.662488333327817,-8.071952272291709,-8.368868522187537,-6.176034454957005,7.4557164226802435,-7.908067344261711,-5.918161208431557,-27.613403077345147,35.58475980524445,-27.472507933869466,0.7455844743369182,2.186310358241103,2.0823060692319393
7.20843868106602,-30.835185729471743,-7.028562543298393,20.851785743853526,-10.576053090469163,1.5299083832911515,-13.869701425574338,5.449927636452111,-8.124625595981575,2.6281463239833505,-4.76140352312634,0.4543589472349905,-3.1286451856290305,8.953131388919333,-23.518835354674156,0.22843065517706584,0.7100939143208316,5.999705046330108
-2.7590682563470956,-16.383361082912995,0.6500428118328772,5.86559394830523,-14.96250677337499,3.284908237636181,-11.464535792175187,1.104747579138123,-15.638728616729864,12.352125178469763,-9.623899539205059,0.283710398303894,-14.680385042715711,19.72615165444683,-24.451442539635217,-2.631710820778438,3.824673121535797,2.4948989047216696
13.643016778627711,-35.62801658678273,13.60379535712118,28.869396173250777,-9.585639751261294,-1.7954032697069895,-3.688546236285029,-1.5798308251313458,15.227654311476092,-8.587801847557484,-8.139919363769954,21.988258622028763,-17.443734966308753,21.614110022815325,-21.676536060545253,0.8567409217471886,1.2760411293483647,10.611114805818673
1.824076721296466,-21.087750490522268,24.60606618228729,-25.47060017362398,-20.422456576467575,6.797103903702853,-5.581040528549347,-2.8967244079420946,-3.612744170065649,-6.382141480491779,-0.016540386925529837,-10.116781723119233,-9.563212228732553,5.144262476080334,-18.12393266420459,0.4397648076935683,3.2206584165895604,5.738570089308931
20.476471387375,-39.56054974856871,-7.652326005112533,5.2504244564947165,-8.800535772990969,3.769079292756821,-29.446909091154456,21.76387345328383,-6.436251227793058,4.7111542368014065,-7.617434524791487,-12.143448394068216,-1.9764973605461629,3.2273227452914472,-12.719478567282522,-1.245838935474937,-2.0603486963721345,9.166620003461396
4.267228922415392,-18.975090838198604,-3.3849658231673736,5.210387166047697,-14.271303643420989,21.152265512611663,-12.39458180321047,1.795472415564654,-17.46197322958183,21.176484190817625,-12.29002162530451,-4.306929908874082,3.753872851836057,7.562436754791629,-14.447764017801344,-0.5866931071892636,-1.4807882685405156,5.8559405326675105
10.42383964123209,-19.000337676715514,-2.045539719563074,5.171472238471575,-3.240537040483062,0.3520219505777211,-7.256909963271741,-1.4728113146804223,-3.5839236229794365,5.415695427533932,-4.659205617356003,-2.6231317038133737,-19.325650134379185,19.02857653930762,-18.81660790710381,7.495445134409642,-3.3415138310352104,7.9160595137812795
5.547409295804595,-24.597078966338504,9.06149795072125,-3.460206062819079,-12.818214581083264,-3.3573673791989673,0.6147542169081275,2.87690740401914,2.775539961157889,-7.0237182202373925,-6.600366021130375,-2.5998335024618497,-17.503320839952693,22.391185555275104,-17.525174032543745,-0.04661102204236833,-1.4900337632815495,5.776486594402722
11.610980576007924,-24.92538223027124,27.00645324775709,-7.793831364188948,-10.972632759318081,-25.718632641509053,27.626898501927442,-3.710287550662451,3.569583860100799,5.8313105804171474,-4.832094634426843,1.329420423173713,-15.974847164396053,15.404185251855406,-16.335337535304703,4.1313449983739,-2.0787320985529227,5.296654514921267
12.110444831231492,-18.42279630878363,17.120865503156093,-5.583281663445993,-18.407265633768045,17.839831486525526,-23.780571430044333,12.359920417818238,-13.701971701911859,20.933630295732364,-6.678765134255633,4.672338902553064,-8.978432746105572,7.345108981749883,-12.219773703938964,1.8650123089160897,-0.7129573394307345,2.863195403848048
8.120084907084884,-23.742018268539674,-5.653595162726813,22.117037932773318,-7.973292480807122,-0.1253238716763514,1.7657977164326475,-3.6007497394720698,2.231197225356633,2.833555690559993,-10.284922318183078,6.061678810818133,-11.06509055476668,14.913476931927475,-19.24125911085095,5.45930435825658,-1.5919395334098247,1.8940988933118232
13.019057177039551,-16.56633555143896,-12.312545266826113,2.649761418336954,-10.237614883702866,-0.31601207227484807,-17.220233396728208,19.209616402839345,8.106721540484168,-11.94484473143009,2.2207597203404585,-11.592698752323143,2.3749208306544496,-1.3443926869184288,-11.325235894121858,1.7304638006077875,-1.199947678464122,1.6080720361508871
1.7093666716213178,-12.228074155472157,9.058292919071683,-6.9529989340783125,-14.360250493431534,5.93947033047509,13.01275582062112,-10.12828504723836,-6.524767781564027,16.735833136843404,-10.861613261916341,-7.762865592260541,13.567884181081048,-7.931851154420986,-17.573766139605326,6.401423723459281,0.8537011124850484,-4.342669022242729
-5.007845438094936,-7.602243279777781,5.43079868766981,0.3401055962195665,-11.063738694150395,7.703457398440235,-15.349389024913464,11.316855504362833,5.700741772929803,-4.28982270593959,-5.097807358506158,-3.1522961425074225,-24.85021245065701,27.768829238509014,-12.49823197473615,2.1868003707102073,-0.21617094063998143,-1.1141782116942558
6.539545269229833,-11.575750279266561,6.102325012847436,4.118598175554895,-15.28973632231668,1.5579288452650601,-6.602091214575931,8.836917608515433,17.73206409547529,-4.903483604387875,-6.074186984260387,-1.5696753285014609,-8.97154101932164,7.123372129405867,-12.798156059297014,3.149343866186633,2.133555788961913,-6.675509799836196
11.058223185959665,-15.554763176908885,5.604068110813686,10.04661803775001,1.2824807597431,-17.672975270485846,12.594078237971873,-1.454521625412561,5.2524291527711835,5.812750952577931,-2.853120373979337,2.942086426204658,-14.480857105090035,12.359634594456129,-7.926548362991539,4.796832975527053,-2.64410405488292,-1.6904609385768135
10.989669196987647,-24.51987206467339,8.135339191949784,6.209910668063604,-4.21885379092431,6.066287851130822,-2.3904752069321322,-0.5141536934979791,-15.136340630110375,22.780747894067435,-9.985644562087698,3.156284290418213,5.9858367476577055,2.16843116424595,-11.555535237835162,2.344072485792006,-2.4395405842087126,-6.178897639927465
6.529234464856226,-20.79506755165243,21.899415522785386,-10.614240072678236,-5.523824232360301,11.544314784382905,-23.430329028486057,7.4587869075369095,7.738416511525342,-4.390818238369306,-2.5690681830272766,-3.7591877268579306,9.166155575226735,-11.535956493963603,-12.747489370540286,5.166238720433768,-2.3309066530097162,-5.492187718402799
-2.616020238311945,-4.185072004324454,2.755024357621445,-14.448886491211425,-1.9488406876919093,2.7650722037694817,-25.427449996148255,17.483802875011595,6.688180615588756,-0.9937087827146325,-9.705428778120867,-14.483997431019832,14.982272680647199,-12.5423073532757,-10.72118529616675,1.153804363818364,-4.271307918064115,-8.224240661969084
-5.2154224826054545,-0.47156298571583477,-10.430029235141163,2.2256057783068943,3.5763523699198583,-16.853419963027417,3.825374071952126,0.7519073911206671,7.885230605468803,-0.32914670071945595,-10.691315023283067,-10.756177806662096,-7.32800540074249,9.305818550857525,-15.144772645181542,4.467173365112982,-5.233305786485973,-6.171834144839826
12.500799739090347,-16.685928322202866,-17.362748850088032,7.1821704510731745,-10.237642660559553,2.2989689984576183,-19.26688707603874,12.342111461133625,10.841281651062047,-16.850412169458785,-4.354862224422123,-4.001714239348818,13.03717794394001,-20.016111958636202,-10.686016502262841,2.8015012400322767,-5.900456298951257,-10.663293330191228
-1.3235845932359886,-4.29229812384953,11.644840388289145,-9.247321173866307,-8.624678539656013,-31.673695950401545,20.9225268235508,6.941268238289691,9.11092607111313,-7.002088817772915,-6.7119665525903125,1.3847657965470725,-4.7827908047345105,-8.416817194068887,-7.989637790664638,8.754666361330319,-6.077396354919621,-4.9015136549883485
12.882673357956453,-19.0532654461678,2.177561051473025,8.504372252393367,-6.819368996319694,-14.277634715203192,19.997488121549242,-3.7316499035869777,-9.024762491210398,13.981279034492225,-5.457778139453772,5.01260281178662,-5.415977397929964,0.3530669167200422,-3.735297589914989,3.9670425776426903,-4.982816945875644,-5.683652571974113
12.052535917111095,-22.491700644282112,7.165927530785035,-9.681019817581106,-3.4545099725279833,25.092170785102965,-46.84707201070168,19.874784298785556,13.563995693313771,-1.850197040890082,-8.795571148437114,-15.872484517994057,14.067346204956564,-14.019238975762807,-10.813838875506088,5.43110474704862,-6.718296617132932,-4.5135122217856445
-3.8139728021990393,4.826270006942991,6.980751967903307,0.45528218745380844,-8.491193323798392,-3.0187718361843636,3.3994492088256765,-2.3187346397454496,-14.823416332181942,22.06721200798403,-5.885359021616904,7.089894705875492,2.494520225968669,-5.82988291646738,-12.232833212032753,5.138945311705376,-5.326667241867982,-6.957608686204097
5.615816395503051,-7.705912830045367,-5.7022795688681835,3.4635048696054316,-2.0072405028544775,-17.652198706637524,-1.4335457400898566,11.232046620287038,-7.271609527235315,12.099629668145676,-5.614017319411585,-3.5428739553442137,2.1513423908440696,-6.036339964658438,-10.726712784187693,4.750772028782652,-8.132213930857969,-6.765870829924469
-1.0649573678948574,-9.892180660298767,8.57057518107022,-14.621422601153668,-8.90537378941879,12.83299499191968,-25.896298273869125,15.018660367170222,4.773623381310937,-4.701691754171044,-3.879940780091384,-13.199976295365897,-0.43895902991706315,1.7679178048467907,-12.057296875491632,3.778321396438247,-6.052722048138827,-8.137605032041478
-9.402929169516806,-1.4395669855220241,9.75965666857092,-10.634793312103541,-7.310256064769645,-9.806880592093902,15.950002395027532,-3.0684151375055393,14.085608498970386,-10.172355599809027,-7.128558700649046,-8.502326997124001,13.864529578767385,-13.569902092333756,-11.927654734492759,7.397477848790867,-8.95157916054458,-7.752470981706466
9.020321214122887,-11.743055163144739,9.974537240212683,-7.721506119995556,-10.01504611365899,-6.762032725000719,0.5683149902302516,2.96765257438563,10.996227702196945,-1.968520435518296,-9.695739233253597,0.19832913773010263,4.82681594073545,-18.064880410196565,-4.868959974682305,4.865913170171827,-10.578646348644169,-4.829228895159508
-8.979747763943582,0.3112629069687394,-1.722438769164624,11.892133043201067,-0.9062098215082575,-9.868888539026667,10.28411496271547,-4.276015304085515,9.275219772348866,-6.4577217810952625,-3.4759056689451944,2.159617094713216,20.104873994011765,-21.971055109659666,-12.170604303901223,9.269786717715327,-9.664330099192519,-5.520337806283823
-2.2693759554060033,1.1291271255238016,-6.971606321113255,-1.208707143188727,-7.132590166197398,-2.232663128715311,-9.297957935655251,12.212899189990504,2.867801513113031,4.583180199421669,-5.949807868844653,-10.82173613791403,13.897220430669712,-16.694521213059517,-9.125181172810375,5.472169914692801,-7.185165605569433,-3.5757230049001043
4.93233042355265,-6.6526980800675055,2.7232665327765053,-5.617159824437362,-0.2757742281577098,3.451132853372062,-4.27082966244601,-1.472643284803322,-6.565849529341637,11.134400300985678,-2.3711401147426443,-6.811671605116682,11.106575850360755,-13.856526847328634,-5.791436923701902,5.973273598703742,-6.168501313832645,-6.612708121202989
2.7619514920389427,-4.381576036771538,13.983076616201728,-5.727838405293831,-8.070547940994079,8.35438755292668,-35.182297159804335,28.887271738707227,-4.865365797066273,10.559229620035516,2.865487563831703,-1.9237377206649535,0.40463929122246123,-4.179564637015872,-4.903784846598782,2.6675243832954716,-7.981504825691613,-2.619410246356367
-1.2608563334007474,-11.003097235128067,1.8074483452371508,7.834384954060861,-1.805521744103057,-22.093744082732638,12.324855657612662,12.861607582683396,8.262220445207408,-1.14625058229249,-11.822295822552976,2.084205690368246,10.209810043603918,-1.5310125018811043,-9.587266707989265,2.195666579793426,-4.5185437173850245,-8.490636770802704
-4.499325072423339,-0.5402889857613147,9.947053865739852,-22.35325625764161,-3.2583560683398876,-4.200584111908421,4.947816300354509,0.548814343082956,5.082104792827055,-0.15350460740001637,-5.808879505967296,-16.565537129584833,8.588003995591576,-9.817159747383972,-6.072132805612046,5.338979020659007,-4.1781444481399515,-7.33161620551261
-9.590206123253996,7.963605837724021,-0.6611996377903715,9.081924181908256,-8.620381802371618,-3.2991663653634378,9.582139957511759,-1.605669024542527,-5.714180804311027,8.849941593231513,3.1320199509893545,0.5263435186397363,-1.4333920019677502,-1.8891351939516543,-6.272616729858438,5.6520666910761905,-2.6633280915455044,-11.154267342760075
2.2167928131413763,-5.120599514077163,1.52613982167259,10.536950574461436,6.81582814524778,-10.112011536462512,16.559713919159623,-8.25047674295273,14.7411365925592,1.5473547441410824,-10.390616490005952,3.261408848465914,17.939164375219796,-16.712358615660992,-6.966000048110736,10.752248073607,-5.638206081816238,-5.4076028503660885
2.1126432122054766,-5.026728044621176,7.329245282214811,-9.882600140145653,-4.1183943220441535,10.810633700255023,-15.72165520321007,9.228134529370934,-3.572551042804945,6.747810623494163,2.4520758749657094,-11.094775146039145,11.626704555864041,-17.762817540798252,1.5158487590333785,4.818982930334184,-4.899491654930285,-8.54895075123962
-10.976886610752535,4.436592299891245,2.4900859912817834,1.8279868162556152,5.452687970354507,-0.7860630150817836,-4.448199535852789,5.321682042467684,6.337956972566657,-2.3068707364879195,-0.8210240624949634,-5.432283676945027,12.34456832418322,-8.263200619538884,-5.729776625723719,7.1885163830273004,-5.33003616289664,-9.738316211431918
6.1129265987766646,0.3198188414899903,10.34885985471805,-10.67982014499945,-1.5808428418242855,-1.4444143754825214,2.2348195735214897,6.7884094142062175,7.558025113697,6.805719589479665,-3.2174724685196345,-5.044487084708855,1.73309733887521,5.5364126619278125,-6.143918705920132,4.872380475596993,0.10155236486653385,-10.34292109758912
-5.114902717491283,3.619394223281219,21.139789585605588,-10.19843755265618,-4.515521016885327,3.6597119650166148,-2.8016080805256625,3.9602218475017907,-6.2601101748626515,14.261097897951945,-2.295827612471209,3.7406834280844334,-0.09021716074361863,1.1747570538696577,-5.488362586108554,4.706627408147606,-0.616594440377146,-10.851066798647071
-6.96448739429691,5.936783488388869,1.1709502882295126,5.615904857810812,-13.312409809708466,-3.149742768269607,-21.21765899325858,34.630684902568206,5.704475351653669,0.6254097691335927,-2.060057456015908,1.4893235753243346,10.878588908374196,-18.906709868893767,6.295662503001779,-1.3166682110942833,0.42583299008416553,-10.188530047200802
7.497870291189739,-8.157903504616247,-0.6311360374205215,-1.3233270289839272,0.5445785094357145,0.1002047526460409,17.202587322240767,-15.362080871895763,7.4160637695991705,3.9852080268935226,-7.393048486237928,-6.622719590122125,9.150842076017717,-8.808837091796308,-4.190765128518915,6.334049856779373,-1.6540208231583222,-11.480369592242265
-13.779408266724383,9.968922663510742,2.15909767312254,5.9961348897048286,-5.913932779576192,2.764852244888162,-4.632494016839738,11.796850001062147,8.933389830007789,-4.370850477818559,-2.278929686298996,2.0611372936872474,8.691595859934612,-6.715788794098673,-1.6931740197625516,3.7326424035148746,3.397937232863752,-12.1874944519805
-0.8733855114690385,0.062473111312282725,-3.83746726555389,-5.238725417850899,3.543108148190111,6.9926609685318,-5.862288439435282,2.8245150136472974,-6.7360063963509695,11.885944301726187,-1.9523057919719715,-13.084737197000912,9.696162394835014,-4.424303537352967,-2.2274045191021266,4.453541352606722,0.8354176271796286,-11.33333669333621
0.8050837512022122,-2.0368228670451494,0.42241897409662066,-0.45708320914880596,-6.7293423724267,-5.185402710764782,10.095189053632188,4.7919596074777475,-6.779138019640037,7.637745381657979,0.03223784040991973,-2.1572485533590307,-5.511512646947408,6.268879152721858,-2.277747253360861,4.492784325556475,4.330532001690515,-9.699166923893133
-4.3494090599070745,10.31180152533572,8.395677107167074,-9.835195361609035,-11.340239208701476,-8.475993981849452,22.243530380128995,-1.8323509074495181,18.862727756593134,-6.568384114918873,-3.9425976807756253,-3.828871749947957,-9.294292177484774,9.640872434942864,-4.969217555264059,5.217583579985097,3.1409557172008746,-13.828061651758755
2.2180985592789657,-3.517231411882314,-0.6211456503598356,2.4673136868002765,-9.019997872808423,-10.887057867013187,14.957503285340835,11.760628793194362,-16.72581285924766,29.327091396972833,-8.603288528539995,-3.450954825384093,3.523680659383278,-5.148324524044446,4.639852720947253,3.795867482477136,6.153568617701728,-7.6065009218002935
8.007406524819043,0.9103939381031303,5.110703210501587,3.7350860390415934,-4.74912811929973,13.851326943476343,8.159293023113706,-8.433820955116055,8.918030579714404,5.556895597296242,-2.1332412912893712,5.421904826708012,12.922565773129444,-6.555254353708607,-1.0876414979401865,3.5480009707423887,4.872171480109349,-8.515226654695818
-15.888186803512948,18.907151485206594,6.743265663270064,1.2924373856649818,-3.3128231404596704,19.84001132850011,-54.987898823059,49.40242159188445,13.859397801618925,-4.537986890413075,1.893125975995364,-0.1598691566087007,18.609386599209806,-14.99037847062346,7.731605066724029,-0.4089022383964993,4.863278302239694,-4.8353157590157805
4.9465047989580375,0.8629561858711341,-3.243119587164278,-1.2473105653005048,2.515626944345586,-8.253281649528123,18.389970926643564,-2.7217853893128883,12.3563019748473,-4.5708725000239685,-2.0906691473996997,-4.375729495095559,2.7127733755482817,4.800752537332048,1.6049930278664384,0.8120118914485959,7.982407561848752,-8.87164853029819
2.541681243262449,1.1732176833475023,9.527055578525294,-13.063999908986771,-7.674207455043333,7.990601114557345,21.942103807593995,-15.097119655599752,-0.3765036431751083,5.9465455827083105,4.177380427327025,-9.569467770748245,-12.30599694376936,14.048019988234856,-0.8148098453247883,6.234164612414064,5.440382632244931,-2.55754741883033
0.9211324705242738,9.290949797396248,-4.946989285085353,-1.1493288332755203,-15.522632153267134,10.36763377207951,9.966209809369612,1.338757184831243,5.837204605233563,8.263997517691593,-5.96327778672052,-4.022160186681695,14.37400779352347,-13.127874189580172,5.062150833886125,-0.15831582477033646,7.588942491377008,-5.4245641929136035
1.7450247596922726,0.508795327704469,8.316034962068262,-4.859380790086144,-3.939502695340872,3.9560055770620592,7.267361403617263,0.8820267236107941,2.0907170405050906,12.928533650432408,-3.996572237306582,-5.312204194289011,-8.654860341930819,12.043957747787834,-0.6862621947782301,5.463055797915697,5.834223035786517,-2.335752264034851
3.5484755454511765,-5.251014450327448,16.01481933235004,-8.178300383263743,-4.956517075028296,22.05699216994823,-11.447789642874081,5.017394469213925,-9.85814614912652,19.354220086325775,-0.4695265947384666,-2.892567298287982,9.038462940075451,-5.262149043211091,6.647402110448439,0.24636391399163315,10.03967152333643,-5.010043003372088
-6.949985443201371,11.640779683470527,-4.8002257268781605,5.105083462285657,2.911069099054762,4.318095879562195,-7.311456321232162,12.572968930888084,-7.841097604203606,16.017454164583697,-2.60880055973389,-0.5719040250070782,6.320229330118284,1.8493571188572826,1.28154412934488,3.039547009996534,8.486373087337842,-0.751932198845763
11.265873902299715,0.7928383683349054,13.059403383908522,6.377039304945306,-6.997264934582987,0.2517761698982235,4.73473351703794,11.634505927634718,33.23988173902536,-20.031324246143313,3.2577033328754172,15.02889413369312,-6.653159068654434,5.057730116756812,10.365060318570507,0.8541193133585754,8.986959307712176,0.6728046474887055
-5.47681286450783,15.819316523980623,-11.071609276841361,10.188557059411936,0.8659412122500516,6.342339088117115,-3.4346429573233266,4.8387632974775165,1.761974267803529,7.40076581681139,1.5047612536668566,-1.2080498962766315,-8.494659910002294,9.538827519539382,4.698331928917872,2.8699011021094565,8.807024222735235,2.0962409979496552
0.34234220773824386,5.059326167950877,-5.512505978685464,-5.433367948353799,-8.460739826186419,-13.836568265602159,28.728219397723194,-1.271192762538643,0.7540747309993909,2.316170847893966,2.386451227877881,-11.000902358159994,-7.0168950059338115,7.577683999072495,5.37547717065471,-0.7765476203548216,6.677026342532359,9.182525233736918
5.676090353260829,-1.0178603215410256,-0.5372106142254669,-2.0115990140680147,5.453040542424539,-3.838788437235343,21.339295314207746,-11.773568361564642,-13.046217293845185,24.38377324877981,-5.034877640551635,-4.193257910995694,13.600687104052591,-7.7594050670449075,0.2869833297717417,5.051713691095047,3.47589280834106,8.943177792999744
-0.9015472076579067,5.791065523926601,15.377864811463366,-12.847438193224937,5.3997280148456035,17.780691084255018,-12.124641007287618,1.457060826549645,8.701657599433284,-5.01090648826839,6.682616286951143,-2.9534224636483626,-7.580345695006297,19.778412337950705,-0.8989855976911372,1.2137578731511507,3.305254514024431,13.390100982367017
2.289423574219925,8.786689218520344,-3.666443774490574,0.24327849245009514,7.883525822774459,-1.8109844937533888,-4.865689365735154,8.830393511640443,-11.444910881515051,20.18843686151358,1.6009019303136807,-2.6914803996522956,-8.54733049532415,16.850165821770315,2.0129341868989137,-0.27852403837733064,4.407276254525227,10.023104697521749
-6.528698679117763,18.61376423678022,13.229355920977941,-10.787069260284927,-0.4746308819211418,10.043525601118674,2.3928784226298836,-1.9584527689488844,-2.781741616601212,17.851641410034674,0.42343809308042424,-0.9659856681987344,-6.585689179895872,4.647576189077919,9.706395716364197,2.235037647373286,3.070966313849063,15.541663472616204
14.832203392719178,0.5061955518532297,9.912035457145224,-5.703504400366458,6.204604936097132,-1.3441315108917813,17.073056297335633,-9.424783549855139,21.605005117754423,0.18592038524763232,-0.7560663611678269,-1.4879291405238346,13.636841790146823,-5.501068777529472,3.333504467077004,1.0394686930321138,8.183179729070737,10.316572822585892
16.76197038021086,-10.476827057160694,-11.3723057884559,32.291092765139794,10.928832684888075,2.014886174666299,-3.1109516737283838,8.59969867244634,-8.109978312406197,13.871667435803628,1.8710594494652621,19.57118172683012,-4.130597339890903,7.791264662397559,13.168209615128568,1.6035889206773772,6.6577782654080835,12.219200766238686
12.542026497859489,1.87594289386608,-4.431586130950361,-3.15256810494344,0.4166461385383773,6.546133365818179,-5.033329455705151,10.903416925804606,12.176435330248925,-3.0061326600735683,-1.0703079919794707,-1.2661795224058432,9.156014514043761,2.4340778756473354,4.151432533345522,-2.9086579485406574,9.432426006956083,7.186834568332275
-5.933250139842455,12.075897347481657,4.659547686957907,-18.380725260098323,3.867756220523054,3.7533667598486344,8.27853825090287,-1.244089909731569,5.314607291148878,-4.157720872069591,5.263827844527388,-13.999244629150091,0.5661812559153521,5.283235477422277,6.557123038382581,2.2490315498624227,8.792156902721825,10.64939927027954
2.059387659535095,18.072286323284853,-5.193007025022558,-4.89716605610254,2.629581324688834,-0.21099641726150287,3.3280516605497437,6.3373743824825,5.191749082454867,3.3855339079724587,1.244281685373405,0.2199362258514732,-13.688912925221718,16.729353210155235,10.61955772385841,-1.57598705829301,10.694086740953942,7.274632010166846
0.6795178479152302,5.900115934346527,14.15598413629671,-9.577616204996673,1.8780285275735746,12.42673165147648,-7.482251314649555,5.034078038681162,-6.1611880443086395,17.865778965274764,2.6916283658614066,-3.238217573308785,-8.511229207072036,8.354012175767293,7.940221723834073,4.073582210591375,7.716219120907307,8.390833212200157
3.696849416728231,0.8528041684163821,-2.3335658821925236,6.738667952462311,-1.6095607063192805,-4.623239226081634,18.328751027086536,0.5101550328330227,-11.36115112901484,19.65379336557816,-1.0388044442340583,1.70091786304173,-5.776101480125388,10.040463036807932,6.5271006404716125,1.8146439304032507,12.944681273253394,4.3298893886826555
7.8886436431110925,6.348435511642405,-5.930477477172646,-1.4568303110272507,9.354622768058228,-5.559450760865749,14.45145769483185,-1.2772884706739678,-5.0369894447570225,9.43316436715229,5.09229696754775,-2.6387005234331475,7.50494990084331,0.9875880208985635,6.477903197487963,1.9989001121590162,8.605752741356346,6.420101391235487
9.641529934870299,3.3438144601500817,-6.009927002748819,28.141517708387408,-3.315892879257486,17.5283517015521,-10.715561278044918,8.070296187737606,16.91289694231672,-7.7179242016478575,0.9674602243173371,24.954502135628744,-9.000721217888671,14.984944791958636,5.253579157403182,0.32939100055240367,11.691866751066968,4.993356144161312
-2.9587710985072384,17.620648429353544,-1.497713162389033,-5.444400475453166,1.2975321902136914,8.584602573278048,7.867753238035382,-4.650740617571897,12.690969953601407,-6.213164796662632,3.7744700177421855,-2.5325114817211283,8.282074844411332,-1.7769031886043951,2.854179500192222,3.7397962279941024,12.33957618183846,3.565335687471066
3.779624934248932,17.049605082768103,1.5513497960784282,-22.03758906337823,4.639973919500571,24.348425685616906,-24.428944939787876,14.954943428899284,12.864076830382055,-2.0684488619330494,2.96631315093489,-13.418950369711128,4.469689316317661,6.659906163664621,10.315079767997052,-1.9302771537126047,11.525441261397157,3.79622519112635
12.864234453845196,-10.185837860066394,22.278144095740384,-20.563821434201916,4.270035177062171,9.05722780074987,-7.799441564168569,7.120791480173358,-1.6110672738548857,13.896027449691495,-2.5312224927150955,-5.361018427848838,-12.332283838099066,17.736410574898287,6.151627917058736,1.092858239996497,12.472148437038104,3.1469271883921186
13.55266843691254,-5.197998753080736,-15.881033832050033,12.551320111824717,4.582360397448658,16.032111001664184,7.462530830672342,-15.653026523942028,-5.538790992037448,19.023643059559422,-6.272702775904253,-2.187193328055888,-17.7094076958295,26.765012937798584,1.1062259849195923,2.2621444789918663,10.492105407244122,5.523755248581196
7.212096851166098,7.208120777200181,-14.096586692297317,5.138757777629358,4.502760278333421,-17.911507010566655,23.310130493167488,1.614775425976501,-3.7043492194464154,8.040853017843144,1.8983008037654798,-0.7724158885085384,-9.024921019725456,9.33125136818822,10.706505067899986,0.5033237705851388,10.077545654623586,3.211752049826801
-3.0324717706084634,13.555816947652179,-0.2010065454909027,-2.8595002068628963,10.476691174416834,-13.768539268402012,21.67667874743266,0.3295306926737922,2.5250240438825147,-2.0599244630531786,8.602701591448128,-1.6049627476321429,5.127297684310362,10.94360466565164,0.7723062814160597,1.87115271478012,10.740156136930853,3.828225656729761
3.034074901921265,9.841186717014127,15.551607407252805,-16.42400572603432,8.636799114394424,4.6325004752273875,-4.566836385672343,1.0969990515975834,18.422821147620734,-14.501424940162652,5.734931092227488,2.3465360004238196,15.274450627822626,-10.097811553171844,5.679204027131069,-1.0563808461981061,10.624413685766541,0.4394810380644053
1.485549961622839,6.025383794368567,4.84047370228414,13.176446763706977,-2.2864218143540094,22.838241187252855,-5.224333622812167,-7.704114782740668,-2.203094561619837,9.19346953824392,1.9865522840449863,16.550926961269145,6.767880178313097,-12.288488292864571,11.266875526606036,1.8771035553279445,10.511552368155984,1.7370617706725235
14.88085014553057,-12.930819712430853,-14.56073608671362,12.89386120616511,-0.4175935714239576,1.1996145653099894,5.836790591480662,1.7586201296644948,13.69524105309748,-4.218579295181884,-5.474485045162198,-3.719021160246253,-17.26736220316388,15.602182799955955,9.72275074067754,0.3198603775978821,13.038301583643095,-2.826063188522634
7.086569738720767,7.465659123051621,-4.956171676658807,-12.486539209280307,9.751071546699931,-14.481925364494998,8.108413289890844,10.930207396516922,4.984057290841711,7.568032134567137,-1.7065222775635405,-13.736049172055818,-8.783664197411188,13.709974079023482,11.105625668648722,-1.7241686816121975,12.63813885055172,-0.7496980204660513
2.126470357859044,13.503126959267288,-16.737264639197406,9.301967499601183,9.371672904936792,15.247322043602166,-14.327674897924481,7.310429771925612,3.4997522095846563,7.540984240586216,-1.4558536943870108,-1.3905825782972414,6.534993110464966,3.6172120157378442,9.653741965061826,-2.204197268688594,12.240763392787017,-4.631685930447363
10.938175883205291,5.27930504354981,2.1475226386375152,-13.92953071918669,6.354530090062505,-10.102484432383198,21.342291752615168,-5.4874035847121085,12.855637149249514,-5.2763378634000055,4.8480037991752045,-7.991830238861944,-7.640064633823347,11.300820251109656,3.3163349342869015,5.129843274044972,10.967220908013845,0.5672705286483442
-8.471185480300369,13.654102506699953,21.22893715818835,-18.898823254116692,2.555182187294879,-12.600495006875493,22.636435235985576,-0.2168110924934643,-12.945108321869998,13.062010020447165,5.876776967690497,1.5193522641607862,-10.878527625201887,18.108134069485793,4.788958135116565,0.3557467445467246,12.723784728230132,-2.3405852474048108
4.934429837678529,-6.8809246003976146,-1.2905721039819662,7.187249219096701,15.845037016472277,10.585337735087602,-11.71479333884194,0.27026747246274674,-6.518668077389989,14.117748570590212,-0.42032207351781814,-3.22857606732913,0.237630842316507,-1.644869622386766,12.50913453020696,3.8839531350796053,7.8423007046527395,-0.36676796449724064
6.427732395702393,2.464245920782146,-10.039104876036788,15.304496882017714,2.7664409084542063,17.95044700332454,-8.663402784962027,-1.584753609257807,7.622840833690168,-0.8396131189830403,-0.1758695503437111,7.55001215806017,16.72390489302101,-16.121806035841523,8.996174875913423,0.8704577845015598,9.994813013723611,-0.4449711208232458
6.751028749968689,9.85325307115536,5.13970531341067,1.9372371855521102,11.074068770023025,1.5845284548472867,-3.073204927595283,1.151795376463581,11.51037028508349,-2.805769035637967,1.9225876802654174,13.054035390334562,-1.1663990748849669,1.82613706051984,7.1409465218877495,2.9365031662515055,9.610822146758608,-0.5243759254433219
5.415984980254196,5.61804248704904,-18.255133816476768,3.0235149609004957,-0.8342374631129186,4.749933441276455,7.7902182121228964,-3.7273335100700997,-10.188368494452368,14.274016655704362,1.6757914369690958,-9.959030986534842,-22.085139422656763,13.62411178362347,17.588188180347867,-1.148579861062708,7.76452077620467,0.8598901682641378
-6.366641064146776,16.71221195418304,23.781832328205475,-34.269510382174886,4.737448364877455,-11.323488516522286,12.598569892391488,2.9187458155469193,11.082334912684455,-7.218367988431893,6.310439089426941,-10.316513177652704,-11.559126405499496,17.80721053137856,1.567821416755011,1.1153700136951081,7.580912663555066,-0.8820799851243788
-11.89742163363612,19.60030717864362,-8.790634301339903,9.200601316466482,2.984097921015583,-7.5726690959050735,-5.152306988092695,16.40243030942578,3.4463610529729314,-3.024176388672787,8.892855622138832,-1.2021877263442584,-12.460100045499084,12.812867019445726,8.885337445948998,-2.576552273416305,8.08337507269017,2.159997403313257
6.304332709615181,-4.760870537948535,-7.279507629811102,1.791213906384158,3.4762065748840634,-8.41207112810534,23.776926188446645,-15.718518508375322,-9.170165962714465,16.309507955610986,-2.491178811576696,-8.592994733118756,13.689097593480714,-21.574114313682966,10.243457295754233,0.7641025513339623,4.291316553928755,-0.8538797875637133
9.27313741290894,-2.0735575210125496,-8.111163411553719,-3.3718640555883836,9.338857994982924,20.24082885954061,-20.928065681946624,4.311264734432791,-1.1809399128660916,-4.393986792383862,3.8971256814679274,-2.6056465515015543,-4.889963749441083,11.229727299523208,7.888351368205415,-1.2652290112417477,4.993885694878712,1.5022512694563932
1.8918330977521105,13.111302616451892,0.5309462703623988,-1.4057472791434076,14.517307400126656,1.0410728253176091,-10.94501141009043,10.182141522866058,15.304458299005216,-12.39953067118374,4.6199356966459675,6.603471380918473,0.9444051008785479,4.679752295565952,8.558445406773583,0.6129075350381359,6.968327770836646,-0.04908731095869212
-1.190965706258785,10.81284281269427,-0.7871074438297634,5.052803894634325,5.437163118369318,8.989777351429073,14.174704806329174,-18.125758258717617,2.199489501323707,2.156257343770366,4.853135554226827,4.678691157882865,14.492740148885511,-14.465864406677348,8.640443982806,1.808567292432373,5.038732027453321,3.7695974094618774
-6.811347362786043,7.144648828559308,1.1184318842630638,3.796570947558963,3.485503525732758,-2.8864583818205105,-2.2104058311840635,5.424000665886482,-14.909538257443668,12.905735708670372,2.155305692117611,5.096801154215484,-4.577595307113016,8.578822759359735,2.7632116171683205,-2.951799090763482,5.3574843892128605,-0.6161126257837468
-0.027724203659095004,1.6184900636723856,-5.080771966585087,1.661595042377741,13.447590233163845,14.729496639912457,-31.193651825104283,6.513843893301389,-7.018295333234665,12.231548048291078,1.7023301125756456,-8.743993891860825,-5.777539235420678,3.3048780248710328,7.235630404746597,-1.2656902528863254,2.1627253572026124,3.10263320776667
1.2884907769646476,-4.398367570248752,5.713281992633863,-12.387448751971197,4.854239702076174,-10.624428438291776,16.972430373235618,-5.188146804918384,-8.79529792061803,3.454003984056696,2.127024047917499,-6.569773664011527,-19.478638037708702,22.154459753586195,3.600426206892396,-0.26215309063069414,4.829544079548102,1.4490749917720072
-4.229957264262888,-3.2885633547920667,12.406483826814247,-8.369634158601842,4.854334100117767,8.943704948227186,-29.687439305815786,20.22109896255378,-1.9785662869733223,-1.708022068979373,2.550491237003487,-2.3455738319264743,-4.566971935324315,2.9195387194792817,6.9945867426294255,-1.0154548216635426,1.3459835924509207,5.556203523867961
-11.700227691875334,16.569230200815397,-5.509329773401795,0.7265597855321553,5.928256855293472,-3.4227721101844155,16.23194274040703,-11.693488628076537,-14.888861935649206,8.854974448740554,7.172037698778609,-1.0519176908318832,9.26951764408069,-3.3249363720235916,3.6484078949748313,-2.5490503095541683,1.6730774956416834,5.169964714165826
0.8506248058954866,0.5843921888687875,-3.5022669759685394,14.41284512510641,13.544869830596571,-2.1177222203755086,10.392436830115146,-12.551690122226614,12.923940263207523,-14.760167664011298,4.370415330157868,9.811407214516487,14.999485373457446,-9.860468157651393,4.3042775632344545,-0.1754004608924391,-2.9784276310617077,10.349114627129016
-8.277300836498014,5.984413565809636,-1.1039132463126806,-5.201980228776515,-0.8118596944650633,-3.2546995594040213,19.103648733498055,-13.701675708422368,-12.58457857784664,-2.435247706481407,5.669260209832875,0.7517853286868261,-4.662476407090939,5.481199845674912,3.1027670619907726,-2.5860767293294593,-1.0849761173267094,5.663739360045781
1.639227225917057,-5.219511951648354,-0.2674605664003724,-0.10921721329003553,10.319756362312102,-3.611025530546316,7.697080895633654,-8.307439385873776,-15.534368587847839,11.063521428077246,1.0098476040920255,-0.49596294977309086,-2.1570355295387165,1.0001615596748445,6.001033499967846,1.2542128114605218,-2.021769485911138,8.985214611573054
-6.607435520299189,7.695947292319372,-7.438356681605425,8.597064053611419,2.017182877788838,8.532202109644409,-12.401310906305694,-1.1542464093352534,-11.160050495119174,1.126331179305602,2.5017595394904495,9.779178920320192,-21.332504225134723,20.447033056732828,0.9872090370598237,-3.107910196826702,0.9495171147886001,7.227412676910866
5.362157589543532,-10.348120743331854,5.313475498595611,-15.607129159459879,15.88264145062066,-6.376427685690015,-13.554386035292259,7.660209337866623,-7.371913535392921,1.6403587316483401,4.285553597126783,-13.833615608063052,-18.731174675308218,24.953981821004795,-2.563529839479653,-0.047240238672943136,-3.4018163431821034,8.300620209895659
-16.84739956348424,17.309662719437362,-4.39545950464385,0.9121416182055713,3.1849430039414557,10.257703186563305,-8.067019563202107,-2.372233849547176,-7.295016665750915,-4.386901897554752,8.900352742201509,-0.2394889094083954,11.701746824512844,-11.456003354044746,6.970120618668373,-4.2124713113420205,-0.03653843016282643,6.345382743485093
-12.78601030973159,8.050901656609414,-10.09995001849126,2.6852827159286745,8.26072376189354,3.746234606908862,2.400607131318637,-8.009070205785154,-17.17946548856068,7.26360913704662,2.576437061717943,-4.810356665915178,15.766228663632418,-7.7270508275049306,-0.68570712049085,-0.9549754212617958,1.0842002222506792,2.72891883120063
-0.5204006300071866,3.282529378249363,-5.452278462233482,8.950871987635512,8.062778199000595,-11.75048637926515,8.082720264723921,2.370934869046513,-20.52111108960032,12.958658546706008,4.94303348897903,8.88014132753382,14.263383998164349,-14.934211664803193,8.844542623993592,-1.407768003809938,4.061963030583062,4.384938477892606
5.496040335442304,4.9577515306641455,3.004451444898011,-9.002462806618333,10.8920343198005,-16.212647922292824,21.67482631944953,-10.10003574477534,9.535916986958032,-5.856784891166191,3.3046566850826373,-2.528008276513152,6.900254444677596,1.102669957885742,-0.5724636038630022,-1.1762838264795872,6.064613383454301,-0.7961073608611637
0.08740924766550195,-3.525197517767481,13.12173470919932,-6.252157531650199,5.517871047465105,17.606235022476266,-18.64042390632729,-1.0854046155552841,-14.705038879041592,18.494031768296637,2.153583285324834,-2.510787267156666,-10.327112182749605,10.890903087139854,6.708378988355504,-3.873892344648115,5.334249387151552,3.299319463767967
-3.855514786564558,4.591952568708767,1.9499681270310956,6.068809414714586,15.085190783230024,6.892374815801321,-22.138989467082457,10.664505531980081,15.937368936867497,-20.04525856512607,2.075780026097227,10.78732492602819,-24.430220968738016,32.2041428341119,5.100771376194224,-2.371611577600362,4.507567085292169,-1.8837403396292753
-3.598357083005661,13.195723548570395,-8.733206061260121,-2.99706131087923,7.855244924216936,0.4746180055659055,6.58921626692606,-8.639920015443746,-4.300196845210829,2.8435857258849726,9.223704535993257,-9.899994323264176,9.806477559980273,-2.8297939100555176,-0.3170558062862643,-0.3804686623346547,3.096214524094636,0.45185619317518055
-10.176483733282573,14.66885991467895,-8.869073950057736,-1.6133418443336378,1.7970735589556108,-7.799496050760952,22.13334461551927,-15.052734808424365,-1.9791191928096958,1.2216915079940716,-3.9421062016663955,-1.2905057265342248,-0.39185363360447445,2.5678595481352415,-1.7324559406436926,0.634637341441042,2.3696788163491744,-4.244882216295382
-2.2028904879548903,-5.441936307693968,6.132245422195366,-1.4012983899143188,11.266379360416828,5.312552322554039,-23.261238789596256,13.8873048031111,-12.64681789440906,6.827762331514919,5.352457398141494,-2.447281598635486,2.5928685256295134,-4.240472532936918,8.960190078743423,-0.10758837491190709,2.8161849557716767,0.3348993957026456
-2.4318709951257196,-2.0187422649026043,-6.0150817246617665,13.654943595978837,6.184592218623325,8.755579849642302,-17.1904744070715,8.74550904831168,-9.740388819842025,-2.408913205678111,4.880360195333134,10.458190441456358,14.756693375149215,-9.97339127304154,5.198002881721948,-3.486098274285553,1.4082791518365552,-2.7035752797041503
-0.5117443214739992,8.141356995344848,-1.6580773032297351,-16.797093847939042,5.497326565765219,-12.900357728310087,26.282923913119816,-14.462289154329769,-18.357871166736032,12.672356473392401,2.5518979488754634,-7.691941732848224,-2.377511734589571,0.896630310466235,2.996877079525567,2.9016079408810813,-0.9751828603482089,-1.7390220403344858
-6.794269740549914,0.6239720449319961,0.45294139041238046,-0.08020960639550445,-0.4635220204590844,-7.11541690924359,4.032383408718146,9.303928749554437,-15.25672154492353,9.297418929899038,-2.804803712099319,2.966540415505217,-14.238889554286413,24.463229042402123,-0.9635259750757239,-3.5034402844320574,4.161958365016573,-4.193415605041745
-6.533166580124203,5.21475858734878,-2.3188152321595137,11.070422643353934,3.0483760936347126,-0.9408117507441158,17.719612488452555,-15.660458849365689,16.457851556631958,-23.569112719525446,4.337854110109367,10.206606471186477,-3.053713869827457,6.819278976588047,-0.6284025778575835,1.0295554531123592,-0.8564120435099376,-3.2307002112691086
2.224682630748237,-2.1100431312428487,-7.238960447871371,-14.400352195937813,-3.5961749498404885,19.100206529375253,-14.00428535286935,-1.9518106766689445,-18.625760272517837,5.285028628000159,0.5420317048348324,-8.725973204636688,-3.1974914389921603,-4.768926818050858,8.9828151417125,-1.468461334635214,-0.40511946966591594,-6.468165201347002
-8.939161037320673,-2.7954187997016877,-1.416701936658073,-2.9562492689967224,16.224486365103676,-8.321441522925932,-1.0988725621520579,2.186913630408938,1.0763343904641518,-14.884096420291307,3.1908244490035966,-5.490593461868413,13.845855884721189,-9.422521554433947,2.3814794487758286,2.186272131409259,-2.9804509505451886,-4.6283104241375295
-3.891369474034165,5.5024604001582045,-7.703979628653281,-1.0823460931225253,3.525093029475216,-4.005346563615545,-5.869786078887031,5.34955935358554,-19.359181669205384,6.647490810549898,3.690368554999291,1.846087507990553,13.114875404244097,-12.805706696583982,-0.3148934181566103,-0.99475554890769,-4.1878716033376495,-5.035451089803924
-9.194882906184858,5.00992819382083,-6.959904536450792,4.99110573178423,11.822093763135952,-14.534267780621754,15.335985341558182,-11.800141730685555,-35.79100245414183,20.464912106047933,3.0172584845085204,6.155078346541853,5.254279306191563,-8.863754499820882,4.702369516055874,-0.2692247290021329,-2.5625784674281125,-4.564523739544272
-8.247919564047958,0.4145979206133914,-2.602524970740374,-9.73626798463498,5.568077387558781,1.791633519040086,-40.41281486224921,31.696041467315244,-6.12863325357241,-5.951921446296142,-1.5629057064908718,-6.528654192462495,-12.177357169031001,5.235357800348225,11.085535603951929,-5.500598723566656,-1.71797072755599,-4.582720476129222
-0.17159296336743957,-10.920248202206203,6.247052012882298,-8.252176207407702,4.489912772160033,-25.634204308552818,30.890834155317116,-17.289262868290933,5.271485146559108,-15.082662044285374,-2.725777003723312,-0.5600114586605212,-34.10181256293666,28.124370637512694,-2.6500781588515663,1.0847998349465904,-3.2166346244112614,-6.066601947325277
2.240900657882463,-7.021578047271156,0.6431988136951969,-10.869421133954207,-10.748628117084657,-7.84559467202612,19.185135209341052,-7.679565796272028,-8.133704628230575,-10.833680076877693,5.778756194328849,-1.818271198878394,-1.4361348978900783,-7.580607343520889,1.0937773855358355,0.834311479871162,-4.0312421523766595,-6.1840764324682205
-13.901291762034615,15.528669288029365,-13.554645457025625,8.388964084139955,1.6499711887076431,4.082450532712865,-5.606967741345239,-4.612614800302994,-18.41407644213671,11.189562384244576,-2.221564503268099,5.907774714260144,6.228637021889777,-12.815767199538124,1.8089954052071642,0.29097395225137246,-2.59933089009038,-5.521072605294577
-6.898345612520243,1.3585945502107366,-13.299278693335783,16.905302421600656,0.9624359412825854,9.954602915118086,-28.446180521760482,14.079862580330225,-14.631949711827751,2.9393972663833754,-2.6052615773581325,12.364086688749664,2.2716332099288614,-4.378289649721912,1.0581177475957002,-2.4007403927941837,-5.561688012634358,-3.00333704047765
-6.926532073057224,-5.8787536002553065,-4.157215906939828,-7.586362493490701,-4.412666093619407,-7.221596306519167,16.781789319730922,-14.982041278116938,-39.85437293056914,14.025897136441618,5.7995733021773255,-4.519961581800077,1.732165456185232,-13.225727032886248,-0.8658649382818684,2.52491215649651,-4.129177121283693,-8.591940426652366
-10.177227786682412,3.5824370881746885,-9.273364580266431,-6.784351230346456,1.7358513085913216,9.488304303383554,-18.753451617063934,1.6600969571889301,-10.77927764644358,0.7959932769727867,-4.64418512684395,-8.025037012812032,-1.737499357442803,-8.595939168402273,4.2403143868712085,0.22392509111211334,-3.575375709632058,-3.1459463654936233
-9.130814288759115,-3.8520583287873933,0.5519172822169347,-3.8335394555302944,3.0014884372228634,-10.81522470929387,-5.362421654035295,6.192861453756783,2.3774382806491445,-18.39071744434922,1.4155800167125636,-1.6667956438774123,-10.4811268323902,-1.0360091533822144,8.368737354227743,-3.834897840766318,-1.263583577435714,-7.368775907063287
-20.389133934160625,16.93567318900034,6.665979779118343,-19.437359163383356,0.6537958410664952,6.283005500252187,-10.624273984260713,-1.4814388731007087,-9.66169199952978,-7.791559768561475,4.056704454276604,-2.828292815614543,-4.283544438379641,-1.6789656773504675,-0.5901400196287803,1.383738619354836,-4.908820182526638,-4.072646397795866
-13.482997325824265,6.569762172501702,-7.142382709811072,0.7019022363725851,-0.7173134486791284,-14.80410408388957,-6.9018649506487595,11.64547914066091,-2.169403904093995,-13.501043977140977,-1.0177379064117247,3.3344701608829794,-16.05539013301472,2.3659675386958647,5.684442187640286,-2.7728229358391507,-2.9875293254402493,-7.222593758407398
4.360898252322855,-9.949373920288263,-5.618745967806914,0.6263688627630808,-3.260311129159547,-14.017050412321323,6.683728524365351,-1.3021324165118389,-9.130570294243054,-1.6319904341694556,2.0128210804532207,-1.8311131250513026,-15.425086129605146,-0.03423636091808402,2.5827482492776372,0.9808088076571915,-6.339776395977424,-3.7324593620946596
0.1342131372117148,-6.156452073447438,1.471096807685364,18.617884200289094,-1.7993390222091836,-17.82108716742927,25.933227251926454,-12.589507615045317,-17.84966316672989,4.182372343784114,4.163883340513946,23.57014955417062,8.447397449770493,-12.78593047731065,-1.789615090085979,-0.14855843509212296,-4.613896219469817,-6.6883584123892215
-13.07693796826932,13.065675609661378,-9.99433458587986,0.671727419038703,6.4976746754319405,-3.5596236936803125,-7.455035771007569,-1.9038683833036427,-7.818534260377392,-4.651891345248033,3.5799656106536855,-0.44340953047581777,3.31519045487903,-10.498144841136588,-1.182538604244586,1.9446398179816882,-6.989770643815772,-5.933863436285751
-4.022099673203884,-7.850210631742959,-6.225479648647925,-8.484846927774775,-2.6860505798253396,8.454526065685245,-1.4874652480614783,-11.53104766869299,-44.1748724023669,34.46377623433883,-4.817121009281021,-12.054419704057333,16.347002279491015,-28.132391816417798,3.622729206946829,0.9126228991245577,-5.361860457353283,-6.937784864118806
-7.076816936893299,1.2141804840504395,0.17979635713327902,-6.215070197018458,-3.471217465155183,0.7406237058020952,-20.422849874882505,6.381216155854746,15.661647832467118,-27.496389143005764,-1.9841038107004207,1.9209348285158008,-19.84098680187364,6.968646980006529,-3.1943525539634265,-0.7055351025111666,-8.910045349453991,-5.500816339486135
-5.346320122964393,-2.9058388293945807,10.784001295975036,-20.839677292402587,-0.7407173430682459,-3.3611327148377175,-8.986904182169809,1.7344717995717205,5.672893967513852,-26.858066814136237,8.856324964910009,-5.978987067067628,-4.172994729852738,-5.196593481004645,0.7298512135262447,-2.714545443133832,-10.700676735821157,-3.087799928264681
-4.494776546079588,-4.48733955275295,-12.206425434913193,10.142295275208877,14.782930225782051,-7.75705354027626,-17.961648252816055,10.955026190534483,3.4967960667482085,-15.868198554330647,-2.569721133658252,3.89487736271218,11.104108564254043,-11.599998241284155,1.72326912222886,-1.2081248219355414,-15.030744951724685,-0.6752884983536367
-16.436447871861787,9.55584786040483,-15.665687558614064,2.354569874721668,-4.361941834888501,-22.701201116541455,12.517117647511364,1.2298489686480374,-20.16394040775934,7.328662949289836,-2.374993470390147,-4.981446766479486,-11.510228080960147,-1.7922258186986637,4.473484574526393,-4.487207010099277,-13.697048354560076,2.0297161919043027
-2.5965431007638413,0.7466056825842395,-7.4064178330374935,5.407288377736499,3.0560637019677337,-9.130477902590485,-15.403656832345746,7.911012876294274,-6.031038881842634,-17.912987588670433,6.413130641749106,13.681828955295488,-4.925116148318144,-8.390996874325307,2.1444672999376513,-2.3954124339297334,-13.92630696228285,-0.6369092867351416
-1.7452004160187942,-6.891230596885715,4.075147614901339,8.753424745805031,-0.9519203644288856,-11.576810791433942,8.922253388783393,-7.869291347717082,-23.929754483281656,8.017697241343434,2.114645354531257,17.989553235222907,13.769360850024253,-25.63453890449115,-3.017643455159927,3.407052394868788,-13.472438679531404,-0.9601774973600485
-8.804231679191515,4.220763198956432,-3.584625631098904,-17.001990906899756,4.805828867593363,-0.5475585208833715,6.001453573786911,-16.716112088262477,-6.67153220979918,-7.849497543097367,-2.184299851583963,-8.464755413737134,-10.603399301765304,5.071759330193727,-0.9540895284695798,0.029341332313814972,-12.433145818948365,-3.0416871032039197
-7.855438606412132,-3.515612385582939,4.771037761772691,-17.85421840360066,-2.5226068992341393,0.7147416287904482,-32.56461596542714,15.941363033830562,-0.1554794737723899,-19.322506031035115,-0.23359745824857603,-4.742648670748757,0.9617360616422039,-16.859606008393826,-1.040003319414569,-1.4932449358361426,-12.859284108132378,1.1265234558260495
-20.57885188783598,14.822233165880316,-22.90944801398046,17.622707700339458,-6.921365757627498,-3.8835947307574017,11.682889746912602,-16.246172069164807,4.017000443991197,-16.44028267496725,-2.677929134885538,4.0578523302853045,6.081328523231065,-21.115092140742007,-0.9315886638132858,0.5971094707246918,-13.188371472142764,-3.1041795370345686
6.932589621103219,-13.13005597328604,-0.9802543704792299,-8.326600674078207,-4.288830442310811,-11.217512775835516,4.7575576458584035,-7.027122633350935,-9.583983770441245,-6.72251615345865,2.8852499867721977,-2.0830714595899296,-5.986952638894171,-14.823742819497557,4.839998054714478,-1.805210801924469,-15.080629816492124,1.6493093913383952
4.853591262169973,-10.027520423795826,-7.372266657964685,7.912728494146656,-2.3399705646180706,-5.173477112008232,-15.644717957608766,4.047100662187768,5.233711102925875,-17.611072846545795,-2.4896499361422695,10.233544354343264,6.45676817794297,-14.489743432245085,-6.186513438739954,-4.891576278968602,-11.797713926760046,-4.828133826303668
-2.987367892245204,-0.5775396691016059,-9.565465341903257,2.4725428033364643,-14.746878179727664,-0.7907703186929309,4.285484575035386,-6.559042880493991,-4.753350725756324,-1.8396466160763132,-6.302426539982818,2.237593781929207,1.9079718281205404,-9.956714873212615,-8.522443201868178,-1.24002055688289,-11.640569080971924,-0.5634891156290518
-2.0392931617396712,-14.956327049521832,7.967723107365703,1.0368374567615857,-4.594936222951157,-4.2218194953113155,2.242534054230404,-6.032577287809754,-23.040978190862305,5.8255682938890185,0.2361283035749948,8.98822194629388,-15.141065398368255,4.048836405577788,4.472944690273436,-5.987514649289355,-9.140397690576354,-5.185933311668115
-1.482019814670072,-0.23335944915745976,7.336089133087745,-13.97277134353559,6.631143517258201,-4.821919314273678,-7.222559031359999,-0.8189374983620965,21.368039111170575,-30.94414484807418,4.430519790034783,-3.206475527374277,8.923775888814623,-14.368283074831464,-1.2828916259908008,0.49512648530482695,-12.2075110437064,-1.8006480599776544
-8.346911947622875,6.286133963255873,-24.25353684666841,9.69061666698856,-7.729211204427062,-14.602959042236192,19.3479070685628,-10.840325954867758,0.249121984235261,-14.295766448918243,2.4721073726396883,-5.049161071968756,-0.11736697120425399,-14.230754452163975,5.948822707806128,-5.4252904173720875,-12.541034030280828,-2.0288747619416565
3.4406411219310815,-14.148105746580523,1.1884641579831605,-6.294496966829739,1.3481757644089463,-16.08418931218537,-7.891181013051418,9.802372399090643,-13.545021595817598,8.504322628640837,-8.95946088229431,-1.8133375839875665,3.927636722159728,-11.163836162261099,-5.668326392646565,0.07970367104397047,-11.312890788134142,-0.7923809039159044
-12.799765472207723,6.824366302561147,-6.183032918584114,1.9400587702410625,-1.195833874065248,0.5978366159066226,-5.44244773246715,-9.204437490139636,10.064226334517688,-20.16197752790049,-2.324691104806722,2.204068980239909,21.840068254910108,-37.00397002214295,2.342819795142278,-2.4238005086424526,-12.429420625544767,-2.192761208004884
-5.504849179955998,-0.9146809101912119,-12.090164700593313,11.054092759659788,0.7522772432813505,2.337160914787807,-13.540874144990815,-8.582528847798626,-4.8031642008964575,-12.207417127055258,1.1846981728029367,8.370281124110736,5.084049873466598,-16.94534413308608,-5.760462585693985,-1.4122079893753217,-13.449208183020913,-4.66746114537608
1.2039247586269735,-4.063931981111942,-9.306261119824113,-1.1206934431097602,-4.428771873005611,-5.397365806056806,-13.631481593163977,2.8788808966596426,-11.56441699068857,-2.8864707460707484,1.8616911825945073,-0.6977652312086184,-18.605601414660132,0.7691023110119488,1.5652855090858084,-4.307524780973846,-8.219842414387195,-3.235904974306068
-3.3181399601491295,1.5759215521876375,7.832824745001714,-15.54103216910386,2.890214497361356,-29.539424866008577,17.62593798741528,-0.11358308942992013,15.073856821630955,-19.445676836432355,-2.1491981862954432,-2.9294076309186234,-11.142348450928953,2.6625870819665742,0.3939266892751858,-1.0510207909451479,-8.460277157424061,-3.073921634888204
-11.942030158797888,9.2665208789549,0.9475996906758635,12.032040964356218,-6.7834113316094005,-2.509840803930106,8.159980674979787,-13.946603870485186,14.954523408125425,-16.767186966968964,-2.4493933838685296,14.566188317952106,-1.6281796119934446,-7.651566057149292,-0.6806489859659575,-5.11948067590776,-8.70170242642541,1.3850116245975048
-0.8392583423537161,-4.1369935300886524,-18.535981355217622,10.113068016274422,1.2188381268725714,-7.805961115012241,-22.400139343766234,12.845428850505094,-9.773912971624501,7.102127594744852,-7.046818251097394,-3.6805615833547547,-1.0984016856106713,-16.208311432597572,5.470582442135879,-4.305702805301118,-8.260535948033144,-3.3358415114006332
-0.4790398024433049,-4.161414894819954,2.214918995059019,-9.188383671726474,1.3106246131273855,0.5690311495507512,-27.862302457606603,14.92946886364448,4.073139350483347,-3.893300618377615,-5.980372485295858,-5.813385620683937,5.095663841434336,-3.964399439472203,-8.398879576211929,-3.7855626570080694,-6.746167121397383,-2.3924724755788076
6.424045803686019,-9.654662920491267,-3.4999351788180357,4.519087083438406,4.234289135685405,-6.975136929855701,24.195869679995653,-33.280829099586526,15.284147599827495,-18.991306648687864,-1.007884637308416,2.503578474043464,8.555468434314813,-22.776098383153652,-0.10088231305443429,2.4957050481569567,-8.162582112388222,-3.8904414082743317
1.9986330505239316,-7.335261173482644,-1.793306852684041,10.512209606246516,0.028731747479981973,-1.922381913392896,-2.653477203181798,-4.146815319042485,3.0580464014096247,-4.792965116570784,-4.531876965938136,9.649070311765547,33.20717514926978,-40.61167637488752,0.6766302750162199,-1.9660717375121204,-7.138622504146078,-1.9702514030147267
-7.212207795739568,-0.32823392851996136,21.006889369018765,-21.189935688230097,-3.6887543022077818,-7.319906200862216,14.2477872751778,-17.59221061030327,-12.194663624748127,8.037173260292672,0.7330812424696667,-4.299078921419649,-10.40368967189316,3.8579219116879493,-3.9178624073530477,-3.8894536706149805,-3.674304069847011,-5.128093165396969
-4.997289562626909,0.9170636647295658,-12.834905329522673,11.172022722321968,8.609401176330636,-15.843354079280271,-11.625085829146741,16.032775268980636,19.233839786356175,-21.712476742971248,-0.44760679210006105,-2.8168647563145495,4.38497881071002,-6.849569018416068,0.47133665576227113,-0.8330099111510658,-4.508025148003816,-0.9614008422324591
0.6354559759815839,2.6507496552221212,-8.297706920956639,5.4480945947677935,3.231267350074935,-21.926208253917398,-0.974002668064234,11.66823617418092,-5.490011646154724,9.377614214867055,-8.659876854449667,5.208867590823494,3.060340308076234,-3.201840948459619,-2.1716325913395105,-5.687574165983326,0.3212909761502978,-5.388353071498475
4.900803053917606,-1.3772490120887797,-2.5891110090456886,15.643015796939814,4.005322353483257,0.017886175311675245,1.1808274325523915,-11.740240069542331,8.166506116730602,-1.8191435065614492,-1.9307267815370777,12.160823001165067,7.693059073565311,-8.636752957905543,-7.256846906174221,1.6643366823376522,-1.8818732210450797,0.7320003471157026
-2.357649244966569,5.825536393451395,1.8494427878279271,-17.32614127029051,2.825963340407853,12.00009612502743,0.9918509886004783,-20.891377113960946,3.2689616068614242,-8.817680252008513,3.33335369170054,-9.793446380454144,13.4979203560951,-13.486188934549718,-4.1396030118619285,-0.9455950695917843,-1.2540958338313093,-2.7178018147779994
-3.2685298849431357,3.9463175012477723,3.3577772465060303,6.63981182003537,-3.138894503053046,-1.311814961187343,-1.540923117856257,-8.167883543773389,8.919391816457033,-7.711699673697401,-0.19195535999227709,9.659639900158567,12.662318983781303,-24.58618959788768,-2.292691938107823,0.05704642635968549,-5.608004481134257,0.6687741116243942
-7.304634562747043,-0.9601045904329606,-2.1657279079991216,1.3090948963605675,0.4664263590179871,-9.546260473117504,3.5436034701011607,-5.308536496300064,-12.578061168434846,0.03392025109169339,2.2396753860473515,1.183093366559901,21.98339981475596,-26.506829698983047,-4.352862727529913,-1.9684745285272425,-4.103596992214475,-1.6084292229715678
9.753161853405077,-3.6201910729332356,-10.033495909134523,-0.016998709680408647,3.485510794053053,-24.910427752573025,4.428853024973446,6.339281523629666,21.492737629887365,-10.581212457303936,-8.122029638882056,-6.707019371959089,-10.78571506201708,4.678040581718506,-4.75361405928785,0.20450612968237447,-7.678545842047487,1.0953152855385588
-4.3420255790507225,-0.3229273477594403,3.3876520029741517,-3.6862186028315644,-1.9919281798549724,-4.337222507949304,-11.971302849944188,10.076086797327605,5.466141714091307,-3.3260853531107024,-4.518839122763032,-2.584736764797129,-1.757014298400346,0.9986387295910859,-5.936379098571768,-1.5296120730283898,-6.762396689968204,1.0650796129773226
-0.5660048508309306,-1.7129869841627947,2.062015746697792,-0.42107641880574054,12.452501935730895,-16.187031266844784,-0.5389794897781535,-0.8365141884784748,8.58151638167058,-12.087942065821549,2.4045637487039038,0.46380942843599193,22.701924341128198,-20.45492501780328,-5.362046045481162,-1.9949762872042163,-10.63263767556797,-0.5272099170929265
-3.723835096329105,3.8309208333069558,-11.666612525274452,9.387799466545605,-2.1077363804618514,-7.626984403650727,-0.14194882420087174,0.7503215876444216,10.819051604160911,-14.991455276529033,1.5152070634306882,0.4854692872795665,13.078638182997334,-18.373419824482497,-1.4680802718701926,-2.3634861073049924,-11.378993328851845,2.861548698962173
-3.366130885141362,-3.711021251708565,14.546322626599322,5.4276012094327415,7.257842507623768,0.15122128176897753,10.704500533333018,-24.42182544473676,-1.7862836406083724,6.7136559613255145,-5.624374900014712,13.593774278575294,0.5259574130636535,-1.8390077711416684,-6.559346009125898,1.5641352452002169,-8.317859628113675,-0.780513211712669
-2.8132477987593836,5.5444742486386955,-6.702849185298312,18.75349178671628,-6.326485970287207,0.7022083069364875,-5.500195178916927,1.675571749420392,7.387188093336134,-7.911042065801155,1.9822423952137227,13.323480628646584,17.368604606554136,-22.512624695452672,-2.2761768352963045,-2.0287041686464904,-9.35951238707116,0.5585396797054853
9.946724103293459,1.1282110497790985,4.176937576164462,-24.170806017499608,-1.2585335793048325,-8.513090693546907,17.748893406183246,-11.876849541231493,4.842885868464507,4.90495235863399,-4.180990795907416,-14.485780719353283,13.801142395007659,-13.79168223764535,-2.4859603158721764,-1.4230802493855688,-7.863222869280173,-3.1800066640415947
0.7335839680727521,-2.7017625155059637,0.4076329716867457,1.656615768793718,-6.835631161944508,9.810615357372493,-22.772456838488953,13.144754579699839,11.967877702596404,-6.108675680966579,-3.4106232222699564,-2.3525086062098914,-7.734976094959553,14.75337148588114,-10.411390075034614,-3.259723379244946,-5.684484490281218,-1.058452267230506
3.1416028634486537,6.261788977040727,-7.756692457490214,3.851535044326884,-2.15903084217359,-2.9212828599371923,-15.83207184140903,16.094922210384155,-6.687574187693045,11.099649196428295,-1.1754780266164775,2.261637445312304,3.3469676823322505,-3.7730043302861915,-0.7590993433403415,-3.6323273418396598,-4.0928430159308995,-4.502719785126676
-3.532651422734356,-2.4503318536924743,2.438222783367875,8.097937001378334,6.814137028161665,-3.6416868071514763,2.632007919718758,-5.174821536847487,32.959865267256134,-29.60419871679939,-1.4795122895269166,2.6770222474968155,15.503532357823346,-8.334710198353072,-6.146760974699405,-0.3924245808891378,-5.041447217071031,-2.1844785824994997
7.76202403578484,-10.576110423088162,12.437416302097454,-9.82329892359919,-5.014174637187716,-10.5149006858792,0.49039365745968944,6.269981898071684,18.506156866010233,-13.27705699680207,-4.908662230457753,-0.5204066474460114,-2.222777442223504,2.435474794225552,-3.8201088804771164,-5.161288239061651,-4.233349353873006,-6.603886803048596
7.044712108476364,-4.931734996209718,1.2444823709590835,6.143368544728836,-0.8270053214174693,-5.571864565789085,12.606906127607857,-12.559913157492039,13.819481213616646,-9.744206400467132,0.7442998412639752,4.681253373652672,4.465749617554862,-7.009853624875946,-4.228508331664871,0.42073542189260404,-3.719353689075568,-4.674774883022359
-0.9970064273010184,-2.1190049423802417,-6.335504468277377,34.90386540679686,-2.987984654721262,12.164034932447347,0.5044030320087316,-14.593478587055923,11.087236480046062,-5.626531950433307,-5.517030083785828,25.508675123124977,-3.884606078429564,2.197098782948764,-2.3914013669286667,-0.8341166149156782,-2.229900250561659,-8.79964366859705
0.8246400772323934,-2.235561909845555,0.6351313480689535,-4.304762136106088,-8.665044912381454,-8.772795081651706,8.031216782709208,5.735774813894823,14.215748453617191,-13.717191919528945,1.2100817920028997,-6.789190946625711,-1.101563174798489,7.790381391435474,-8.17220623377472,-2.1874603802968346,-2.7923685994097465,-4.915746687857877
-9.463330415374251,12.394660794529914,9.363234629274912,-11.480991467314889,-7.408814218363585,12.478290525418153,-13.446200362753094,4.188889419321992,-13.025989494534501,20.67215493105884,-2.8051853869843026,-4.027406508306635,-8.083871449873614,14.652895731691093,-3.797200427183171,-6.959658491017665,-2.7699883737203574,-7.281082395845189
1.6356965418474099,-3.9321438521245042,-3.198412452807303,6.636789471166287,5.858904036713431,-15.685632111074767,29.628273237102643,-15.425483616216255,-4.4260158271199845,12.188651523885984,-3.2071338925779136,-3.413572095986554,14.915175572856416,-2.606355772235988,-6.747105339067369,-1.1856529150362127,-4.7995062228212415,-2.125878142973794
9.219006854231754,-2.9730372268392653,13.732223873870655,-12.452377473011685,-4.506970715245389,2.1470855483823303,4.733090529620421,-1.7393730669442777,31.128827568701798,-26.081556148738485,-0.0934116142370594,2.5719562226466994,13.109591559212518,-9.02588701610238,0.2635134201381999,-3.713385667444852,-1.9472093454571127,-4.684710446003001
9.087327373510043,-10.314332620837956,7.9082615688400875,-4.78267756779515,4.16998902810646,4.256788149452321,-9.71257712393123,0.4223188704626182,17.56317231499564,-15.621635224166603,2.8249970892590484,-2.8679554262477795,14.23418025160089,-8.707307737358256,-3.761743604630173,-2.6286099855332967,-2.9046224855973115,-1.9690692977017452
2.31490293173489,0.31391631764467265,-8.95136160359527,20.368398214180736,-13.228097118345094,-1.9344997034637306,8.166609799562536,1.6066292622660097,10.639597929815483,-10.436305263455436,3.009000649217011,10.833562544512976,-3.488729181672122,4.697150674835715,-4.174200431103271,-2.423578822053031,-0.1520846878457025,-1.6938860083865133
-9.242759728239127,7.719993859964662,-7.25634143888969,18.566571844091683,-9.337229112830354,-10.567277357191328,-2.7630886030630055,11.87230706741206,14.65505357319561,-6.71690275513459,-3.935989664704504,5.785303383697681,-22.090107640362564,21.617045281000294,-5.075466900903826,-5.2467587454204,-0.42796426204001214,-2.0036337955840167
6.9343765076501995,-0.9869081865490759,3.520530188416056,7.292571929874644,-5.642113178812347,3.065899529625508,-1.876047328535038,1.0431128901549611,12.910072960649314,1.3960492283558104,-5.021484944399886,7.475933194914873,-16.27659579803156,21.544266276999156,-4.317057208608381,-4.359761357941447,-1.8767476324644417,1.3986571525577935
19.302871168450018,-4.517389344924412,8.046996953323045,-14.039555460601957,6.744102192032848,7.616932250024988,6.628455574533997,-13.693188125617466,-2.114983940490456,14.87914144138406,-1.9076574160951512,-2.063576768421889,24.69416212663794,-18.666055154411946,0.7378034246092096,0.5303914941223855,-2.3499472916416035,0.4074231424964596
6.378030942530778,-3.359725571070279,-2.2708134607041925,-2.6557282530545967,-2.354826984374653,6.699192807764575,0.7774330143001268,-5.09008303901341,5.322620393473347,-5.4283657654678175,4.428924753880535,-6.231415724052935,2.676141413822279,3.9173546014177223,-3.0946638585158794,-3.467116358065737,0.10560945673685751,2.151707400731726
6.051068427874322,-10.502383943581481,-2.432510842473235,9.705279285868148,-6.766628055165847,6.660469621307184,2.3485651335860798,-7.425434643615987,16.374945421518806,-19.096153075563223,0.9021334928552018,4.64052708900992,10.346541345913765,-8.558544709989052,-6.243984203496094,-0.7270403763369222,-0.7601542360963904,1.455677320809584
-1.502528312311369,3.351969550587777,2.776684178291239,-0.49205755362402037,-4.733462812008215,4.37574995722496,-0.9630195899563181,-0.7770594136866906,2.232959780883961,0.04806948019556323,2.355954270491341,-0.5029156684927738,-6.982968875421095,6.700188985738137,-1.1904950469459792,-0.6245169218185342,1.1075606223826977,4.276482063016928
-10.032654726568426,9.198997668636228,-9.3974733305731,15.971752307353714,-10.41570408611826,3.4584047453276305,-1.7353295360652252,3.03846116151869,-7.513040614782744,14.015457271726936,-5.4676341503961225,4.705839412436324,-7.71018846347479,7.896057818301337,-0.8250012708988266,-5.015035799287582,6.294720117776885,-0.7141498593071678
7.804865462517602,-12.981125137547126,5.283981298679056,14.955399760815897,-11.801449736467829,14.748477232745504,-13.347472108024233,7.6344690516990585,10.477143454993707,-1.2177768608169206,-4.111310213806202,9.915065004232325,-22.304329025866025,26.572526449253182,-4.170908422956571,-2.8632645605022637,3.766019757176471,2.4020188907014224
15.486046322403627,-4.593744007716977,-3.863310835324455,-3.8340995908760895,-11.429800277251168,-19.469723409217906,32.17034244389241,-8.083101524981096,-3.0747382678188124,9.036719063028128,0.46781244028283564,-3.2349013468670593,-12.092922304432408,14.096054518269248,-5.466392558700817,-3.3490224227194414,1.4317570902138321,2.7850041442327598
11.546030456282384,-4.897260109727312,7.106641387305564,4.232829710595086,-0.41389999245441267,9.106269684061372,-28.46562517098906,17.214816817297745,10.621270469308481,-5.612430818620404,5.144694466317622,7.834707327590517,-4.517790250296472,4.744522621981924,1.6363169222628011,-4.421487956059712,1.4404234122239608,4.927086194643357
12.879615425452732,-8.03219908253253,1.7675087596279853,12.30029673986293,-4.535390274971446,8.971186466500615,17.833815851409966,-17.54752990872541,0.4901669495853991,13.42943613401706,-4.6316592558364285,9.627278014787073,-3.4852395618958587,13.068947378177793,-4.2498073746715095,-0.6118183074252199,4.182671068946121,2.4805354087081892
-2.974470684536945,7.29083595414282,10.979144818824015,-21.429224264621244,-0.5517263229107097,-6.398173089047304,17.550699425125252,-7.583379011989647,24.44298514311098,-25.04999034520897,8.346358240126635,-13.873067214076514,6.6299709813912475,-1.2633050710384501,-3.9838304933816087,1.6345855841764854,-1.0838296372183551,6.871330056411574
-3.1055613386931222,3.864255106178461,-12.134158278365843,16.620204909383208,-12.096077952436222,15.928717332625142,-10.857660567767413,6.383999844950739,-5.216932828830325,6.7832910367646875,0.3280871496357924,3.350295041077551,-19.3876896044863,17.022058450206988,4.094447218626734,-2.369837407006465,0.19194658463886682,8.236060225332619
12.681666834321769,-4.639849348434356,-4.583150966536568,4.0834217195988405,-0.6912916001714393,1.7320056695179415,6.828618950969891,-3.966129562600555,19.422207359455392,-7.3810683860628945,-1.830586415491481,-2.668464318804813,9.576452841827223,-2.388523305688935,-3.648129113229162,0.36340303477410973,-5.076115180943001,11.750607123276522
10.499985673276127,-3.6704659196390077,0.9168307187098503,5.121546718208933,-7.548929003164851,-0.2570660636431421,13.186786923900929,-5.91841544625589,-18.14528808912162,22.204414760858434,-0.571098596922575,9.379869115889665,-13.217509119047433,21.072596282186304,-3.4807102399918977,-4.9120005123437585,-2.53230465702256,11.360210953307636
1.5800427308222007,-1.8214679882866922,4.658766625993455,3.621037501415865,-2.4927432035719885,10.352161980454206,-12.095966886505524,5.214722974334118,-2.2926659336914597,6.4759019644157085,-2.241195361270263,6.096338200640288,-12.768428599357861,20.60753327984362,-2.7276081336319873,-4.133321682177929,-1.6493999869694038,10.775885017843711
-3.7264343368170856,10.868241224155673,-2.6348222307398244,-4.324431369090959,-13.843472934007615,9.92654473676685,5.2002393001832425,-3.672678557258099,-2.94288045715148,7.543736712722321,0.3858029771724877,-4.804105945084659,2.622788885907714,-0.9516282501895469,-0.31456898428672275,-3.745959105783086,-1.4508009860522355,12.536748799564295
-1.0248402606856448,-0.6604601840473185,2.669243269640315,13.023889278129213,0.29405888358319743,4.423231525736214,-0.9412280144647509,-2.0137373451355125,12.424082215082443,-10.432450637769804,5.942694737137612,6.073505788738583,3.951796853638339,-0.928447025646563,0.34040508757417776,-1.6014298658837949,2.26279804741937,7.658307485558394
6.852757216190523,-6.231324187259622,5.238703594873264,14.063785240986833,-0.8034181825889513,6.342439343530956,-4.250438339960303,5.503985482873768,10.213944646601771,-2.5300784452101226,3.296503980875289,8.943551682677693,-8.488429191927665,18.23564150273878,-0.5673515515995111,-2.387292455394018,1.9717740496164247,9.03139907609788
-0.7970763390720204,6.362872560509303,-2.5437396723983206,-7.65017174924696,0.05186598122189334,-2.7731193867044777,29.25749984001858,-20.67088407979549,1.657330899166812,4.980942525249443,-3.548795758024404,-7.717592866444878,0.45889943240618697,14.059527608307738,-9.385573037424168,0.732508351412057,7.246608490848063,2.007377857926741
7.6667731080522135,-11.218445983413325,11.744288133656164,-4.753995647489815,-10.519190536784702,-2.8059258701333745,18.526659710689827,-5.537190521961906,0.13333410459351036,9.854505700388366,-3.1672429527246844,-3.381977241295651,-14.617064252018125,22.188292828029013,-6.0944035956351,-1.8124721986053567,4.3175829170717375,6.020148417380557
2.849331756184066,1.9631548424917975,10.895192569046497,-2.2480863392672594,-9.567009684693975,14.349635634444228,-6.266719972911096,4.615308733054613,15.114736590117367,-0.89784682704357,-7.863707194304483,7.106410259843425,-0.10221876768332272,5.902632382501143,0.028690563274662573,-2.6978894682387615,6.7591460416551215,1.6358337436966526
7.211885567196255,-4.679030059047221,-2.3566055003561606,14.906829274306709,-2.3650996853378006,25.451045234194137,-17.19252892555017,2.8529258375798054,-17.559616565639267,13.642499637624724,16.15139500043829,2.8488012098348,-0.528491519643124,6.218801746508317,2.635975473419447,0.4200567605607457,5.293835274714519,5.749235124131495
4.836228377478197,2.5469234247290933,-2.22945895766547,-1.6298495155237411,-14.402120352905492,22.490389416724156,-3.7037350495962764,1.0899170711196602,25.842610575151088,-22.20918192643161,5.107564437277697,-5.2171497568188485,13.303783849364743,-12.703586010662974,5.731437646783569,-0.8571844001843236,6.562399520143709,1.0749437528346872
21.211035592086365,-5.656303522908206,1.9014924285895778,4.9786622697479865,-7.200911102881905,6.444265652027688,13.1055855086213,-6.923800691800228,15.436601658500532,8.638760470202111,0.7046609859659938,-2.345136346991457,-7.922549417617173,20.034991217971395,-7.384377308502957,0.6970748740741914,6.8538670414317995,2.8475772356354554
-1.6723854506789335,5.4774472619583285,-4.1241208254827075,15.298454133983132,-9.863466930506895,2.8990207892333544,-3.8745132160050524,10.55055057887137,3.4692245561715014,7.845004012766985,-5.162903246943518,8.828069797947457,-16.452854422035816,20.44887872830037,0.007860059827004218,-4.292293144540451,11.637093453942903,-0.9447573842732053
3.5698106817652904,4.111754607356953,8.991025696360673,-9.147644155016508,1.3410551671116586,-4.649485480202144,14.692959129173193,-2.444901509184482,-0.4890864139479447,9.101490462222507,-0.19024876371899424,-0.8972084539254794,11.541359358320632,-3.063356979009538,2.4194987065069276,-1.957873778961638,9.48614507384495,0.44029931597489824
-7.594301015296722,2.8444685325911663,12.14492733259099,-14.061950088198678,-10.697273345780713,28.233035204345338,-26.310641927875313,12.586842297780063,6.49137564567844,-8.685830764259109,5.95451209919157,-10.42691221875945,-12.124845536252995,7.702297087108735,10.8858823517869,-2.651371674215177,10.362133020307605,-2.177073310220206
10.636763850693589,-3.2072970101324643,-6.186027840689971,18.329223659835424,-5.938765744046904,12.775712458426074,17.062186573191273,-20.917873173736545,-9.281335986535325,14.933202607587909,6.728314381730501,7.192481657089141,2.393653663790601,3.7216542532041563,-6.91768196941301,3.7836341662102617,9.577507074060552,-0.10533055354540721
-0.722265720430102,5.195033153663873,14.54595997608352,-9.827200262823396,-6.942346198333097,13.823299923940585,-0.40562138263010894,2.9019556488626215,-6.009735947360253,13.16071726031506,2.9124233212926063,-0.8718774875869721,2.8499677801093846,12.827168333136449,-4.506091010620124,-1.7937571108275034,10.843282322132,0.8937256568386069
0.8097310593783935,-0.9528900315115125,6.273446310157053,-3.5102627682975482,-3.16096445830643,-15.695220182153317,29.978992129742426,-2.283100106550094,18.74759083248921,-4.823438517129707,-2.075137178157512,-9.228990567308225,-0.5018387250143059,15.975576863593636,-9.028177687026702,2.394146931138348,11.620378111197516,-0.9377403690101236
4.295090914222213,-4.267989665653739,0.3445656314983423,4.857644033910986,-10.903448318648431,0.8814898761036716,15.734139932403426,1.8088072347657578,-10.498818202215311,19.380084343131518,-0.4217452269549331,-3.2302099998153215,-12.349335681362309,20.19823298097707,2.1726724432890956,-2.500581018320786,10.639264014699293,1.3339734362170574
-4.23123957554984,4.234244879894966,2.9117549277228525,8.34279791255069,4.1080842889581035,17.26367175323781,-6.713848580010232,-0.25223161869726596,21.780113135538432,-16.476347898304923,3.6733187041315354,2.280474203422493,-0.46546719979497964,10.55349726872646,2.2405994405684755,2.077046333947427,7.118697890477152,-0.20140848502714626
10.68050249014171,-9.626397535952481,17.197718449084903,4.796705623383785,-10.275584142326988,10.404108000957482,-4.6496385397526065,9.79579447974666,6.891288729664231,6.261438907878993,3.178699354376068,6.71710203490815,-3.4250390486922258,5.49867641481604,5.140678593459501,-1.9396361609994086,7.992398632085746,-0.07505242362236508
-2.0446779329110685,4.0531855677261674,2.8698078051786995,-11.249489503637328,-2.588808408704587,11.357967943498249,-17.038676731314883,15.351083517898493,-19.813221749035485,31.733236951772014,-5.225964739993519,-13.065224526216422,8.655218779906788,2.2993464760340334,-2.506182216478524,-1.366816718125194,6.6196588016943965,-3.169846266090377
-4.124943833415435,5.916921537894346,-0.32527902346958193,16.357389647455836,-9.45322451370935,28.914454882318285,-2.376432443423357,-5.85231539257288,-1.0083579888248497,7.887489932877971,6.291783731104308,4.653172653478401,6.770958924444725,0.6625259959451544,1.1753688959386044,2.623628716244591,6.613833209013584,0.5729551927727403
-9.13471837527461,8.855628039090476,12.690657648777588,-2.5207747568989722,1.3582387084881766,2.818748565611976,19.121932899354853,-13.579399416667956,16.820761692191013,-9.024925014494212,2.770474836166261,-0.6755189579974186,5.668501535083837,4.396857593141998,-1.68601662504584,1.3401782535680464,7.681966577875989,-3.007023554533296
3.9224151353410464,6.716862742756433,-6.618282375573873,-5.480710654381129,-7.2643427309837225,12.173622643903627,-12.212469502417031,5.548955760422766,29.572477361811714,-15.48831083100796,-4.461592864407436,-11.08228881808223,-0.12098552111897026,2.4670063810544365,-2.0081512790498097,-2.092103409998317,3.866954212006193,0.5435586779097532
5.163190637982689,-5.870555432879985,4.737139397370623,-3.557766747175486,-6.414260171901823,0.923537142221786,13.192334862624106,-1.397731099246204,0.03915437488225848,-0.5649826261106192,3.3458671051090763,-2.348030998410858,-17.33588507608446,15.771717501851294,7.337997391548852,0.5300509163446709,6.692426397674002,-2.5450450006519603
-5.998336019141908,11.816645094541823,14.432206539284508,-9.447473478920674,-3.02519529942891,-7.395990969493726,17.503116838993037,2.69049515885274,4.393793612301612,6.545412854672438,4.708151946963772,-4.844316278001715,-7.108415396356139,22.24032944825254,-6.753527350680845,1.394039027670941,8.052807142062921,0.1296916901576699
-6.514935998460652,1.3791289789466354,16.412134173781546,3.413050103892704,2.8052122659027336,23.348402494996762,-13.147533267741277,-0.057718041964549105,-12.05197657268939,21.663446610078587,-0.27708090300302013,5.354988123946676,-13.677531689040086,26.462742792619434,0.8351673323812032,-0.6720149848025918,9.901267167974652,-1.9792750977920273
6.1524939928935645,5.6886367054670215,-2.1162471879206173,20.375118497060548,-14.802320269813853,8.389798176031723,-4.930374825458214,16.236944253390345,11.05428935057748,15.198839993625253,0.6950431708012605,3.1518294926693247,26.043667164431987,-21.171188635027157,1.3927224404208909,-1.3711536357104441,5.108806840573862,1.3821082310426323
2.218345154678883,-0.8411677753212548,1.5234888259880797,0.617771739251507,-6.335300122492762,-11.743843933147929,19.888616195921564,4.308149568691142,6.035738920623043,8.538654211281134,-7.414768792639544,-3.641186394494526,-23.689076733152277,28.16891600861947,2.341142513204334,-0.7033600797332085,7.835813346171044,-1.2121242547476578
-1.4225916260001044,2.4931476122111826,-1.5753554663528266,0.4895012273013073,10.627898173892866,27.79221222033007,-10.078379755690408,-9.47649859076479,-12.459006020890975,13.792464639163562,7.327562914780082,-8.67631978572022,4.314288531730301,7.488305028133612,0.06710712564587429,6.995531362225323,6.558687682715318,1.6639714794415899
2.3587004332424915,3.3866980731504768,6.849210215842939,-7.451542739793025,-7.76103188919185,12.44543283125272,5.9514133534086175,-0.018947439339607408,22.172593524202057,-15.427140220124773,4.784705441009125,-6.387092762470737,5.169350738585622,3.2140614799822167,4.141090424540481,-1.9076357870099896,8.406458681727512,2.393078904274346
-5.969325025486391,11.214616417492392,3.4569783377078926,4.72472875930612,-1.5402189651951819,5.986316378673449,-26.35939350580605,32.97378970156163,12.663388040854848,3.888933278217902,-0.6876554062027598,-2.4376674236773748,5.3413580391121585,3.3342654753722414,2.746521102027485,-0.3616510073085235,6.836071022790224,4.6861780993719755
-7.265749338907598,5.859397225746489,29.75248030850163,-24.896716295770336,-3.2296715672224177,5.192150413150484,16.33091315558771,-4.737993069007008,-0.16572795165533627,0.6458642877014737,7.60995160693517,-4.6406760432388054,-9.23240369468367,17.907645536654158,2.6217980954354863,2.2583589950733707,5.460873829458434,6.492441219040799
20.24710507451717,-6.331218052099253,-0.4960770625910875,13.256081766290553,2.0146057748611614,-4.195103325180071,30.895747206035388,-17.156723998789214,3.2167522335471146,19.766226684391725,-1.9635839907550778,5.656496799105541,10.3745936695016,-3.2618963130447263,0.2512572299066075,4.194571070535431,6.917638297033948,6.346985591948885
-10.736779996244298,4.623684439968847,7.146331803772111,15.177604961780753,-10.710091725843407,25.383865257334307,-28.85701521069773,27.749348725639003,0.25184884307283895,3.0460201853214413,0.27968780224656364,12.633284378807971,-7.518430943630087,17.170549765442694,6.572579457685492,-2.658591233093216,5.542227187255018,7.863129759127094
-14.47390728560587,24.563719309104982,8.050110056690714,-17.862620774535607,-2.3406491227630424,-1.6778819219350805,30.337280657778813,-11.916458427091538,1.2912401528467035,15.81828520188643,1.3512842145239914,-18.183508263432152,-10.078640075188925,17.7782440986339,-0.8755018252126221,7.578188987730561,5.045645799936874,8.599411091007436
6.594281085299173,12.374964180415969,-6.280975759558109,4.66410504806675,-4.1275244644377524,15.59774684431168,-0.3136267843173952,-2.3630287430242385,18.932732108094726,3.6876721469665394,-2.166819321445753,-3.1012103792217416,-9.122620388064107,11.256671035134525,0.6612800180288114,5.998236187407866,2.400514857884902,10.704279456912948
12.037482047663794,-12.411047394490875,15.325719685677281,-15.681244158727466,3.753822159529479,1.428332527465889,13.567299535477416,-4.0404908198737,-14.695847530053683,23.002708157853334,-2.36434984416323,-6.671600603344586,-15.97867000221882,29.637546762397477,-3.8563542672689533,4.906440909665214,2.782704757150104,10.955007726958069
-8.007734830433783,15.245724347200364,-19.611694441011913,22.76301467127903,1.8695189506745677,4.056785017661771,2.545392858493406,9.028126583297327,4.117978158887137,1.8873069740046624,4.860313417949927,-0.4762888036399315,3.33810421945599,2.6072751316475653,6.470363963556614,5.084080095443742,-1.2297630725718935,16.87121889299786
-7.544572640999698,12.140868952148832,10.490657010752475,-5.395681088816835,6.528426788597064,8.443797566092893,8.12517908264208,-5.052334882368248,-6.658335867569706,9.09252753929567,3.9795851465478247,3.2774954149779685,23.241373750490833,-12.8997052341766,2.6370976585338504,5.0663023800935125,-0.6523673360498359,17.222248547049567
22.313824259088648,-10.494989994657761,10.123492481450482,12.149045581505861,-1.9962998106336314,-0.352279834896958,8.431310636496622,5.672054505204265,28.659915499390024,-21.886541887969898,13.743746492634532,13.574252223498364,5.644619135123184,-1.9417845566841176,2.905855493469505,5.146095424240478,-1.34456370594593,19.332401617483026
-3.004145804417062,25.561980161742085,-4.111384270797943,-5.170464901593083,12.819351697772309,4.915045579113018,-8.059839692403402,11.903984461049179,1.4772815996890873,7.779740416107183,4.367181442110556,-0.34821827280829537,24.181775432856945,-12.957226946820725,8.839172067727635,1.514821491746925,2.357805025752659,14.217139145877397
8.202136448460422,4.001393066487829,-7.018288697561061,-3.1541905390043246,7.224731135024216,1.8821336461314022,-22.988630705161828,28.19446980269154,25.955616950311622,-11.773575086841113,1.7291855484949914,-13.880177133419418,11.273685248981149,-1.9024170981061896,4.81181919104696,0.12961653674400686,-2.436075004028168,17.306355935003747
-3.443233684432432,6.562758726753362,7.066915400325957,-9.634610834892465,-3.545537000376228,25.705752242991558,-6.0811769522706705,-6.297250266274938,-3.570797014560018,8.517378145380055,-3.8383633507240003,-0.5563881721797546,-21.263066298606564,22.921711131324532,5.570125319699596,2.553017871633672,2.7311164924515046,13.463072864441589
12.451139033746594,-9.235058931010258,16.659512162569868,-12.306873861105121,7.95038890495435,-14.533474141709465,24.302852403940353,-5.437037864560341,-20.79239845437612,26.26914784827483,4.559317601392911,-2.4673485909300674,9.385282764407844,-2.7436616234103877,-2.0696953166881786,7.7108034782980335,4.675591575149871,15.089792290579396
-8.178221568850564,9.538415528273552,1.6419938108675582,4.454235731375712,5.090872496066305,-6.138533663440256,37.88954390368836,-22.057719562174427,-13.209040269423747,9.645317115240587,3.777337514252059,7.242809141756398,13.373609619409793,-9.170935620647999,3.9630151455296354,6.618474029831855,8.28024381807706,11.248815455054979
-12.596134412193194,16.398077489267045,-12.887614006928295,24.242194801724544,4.575403062726635,18.17520965852506,-4.5795279836460985,1.2634664520641632,5.311834931921382,3.8614254364356606,-2.6686317274531026,8.651895231123742,-8.809799153735161,22.585463689262728,0.8163535416388616,4.842533112487478,3.583989894183097,13.756695854295971
0.07632162773392714,10.562644151274426,9.789985198439027,-21.010464029844314,9.04075481069065,11.239045504323997,-23.51331899268698,15.990633700101856,-7.710933137930473,19.46451398689011,-2.473721900876214,-9.861372000324257,20.863588463037303,-13.530796796559205,6.849982473174439,-1.4256591172380606,2.598737620313844,10.113208519608365
7.768498811362818,2.481472279332614,5.318326661049834,-8.15735263769739,11.65090061647804,5.182347824367126,-11.685170226000913,10.209548012992602,14.520506680562072,-17.76529505508892,14.225491447570148,-3.5697579588408104,-10.59623545701953,17.15027903213764,2.8253340084878977,5.978248644216565,0.05097443508775079,14.283374919237795
8.624901687403908,2.0179716695582988,3.4830069212347596,-14.543423068387952,6.839363412346838,1.665274962227123,9.127228496191417,-3.286616770590541,-23.893789243296737,22.642743275329572,3.9713063986967763,-3.1378032207674855,-9.437843200030558,15.60371495062357,7.39504280337826,0.7843355461900037,-1.6178511109565434,18.454539362375982
1.8642700359329205,10.929959182536692,-7.727890423445174,2.99602431426474,4.567246218002902,6.937898405299792,17.92744940567068,-16.294600849473493,18.649859807664654,-7.848790165239498,-3.255358629812843,0.5166520968284396,10.178389861552477,-1.0804123757439879,-1.0232460158218015,5.06326170950031,-2.2124188344144526,16.376568927793684
-10.46258179811382,8.4163132282873,-7.513281227242331,22.195003621560623,1.3188832926151313,14.554782822596847,-22.39446223170841,17.573031718402305,-1.4054662757931045,6.38687203785875,-1.3997317914940552,9.05377985407018,-32.510490652040566,44.44279929857621,-0.7495090384220209,-0.13056400621998288,-3.0999327228347457,19.084749664804242
9.730866754128108,-14.50750167812118,10.572230741732639,-4.994114048105052,21.215748708128825,-5.562680787128819,-2.9501394594431325,3.295308898353678,-9.839926665459865,15.739600481532095,-0.9111995494572742,-4.186992496832051,17.4783453413989,-12.965916579067688,8.997520155254223,2.4882884423134617,-3.5967845346047937,15.641375099582014
-5.525169404355863,1.632054391780084,19.184463538591828,-6.792910046374227,-10.645632634578446,-8.589615250292852,31.33784416967043,-5.611318851116184,-15.83339013516882,8.490468449534763,7.097083965861158,8.744276199561497,5.357375968577204,1.1101359231916295,-4.790470708081464,4.814236249984402,0.3986545775150958,16.398125162561673
8.516393615273522,-1.271398156377317,3.47942589232607,-9.276020927685675,23.217011546357433,1.1770128511011002,-1.6606836543028782,5.2088448728668615,-11.768593630037596,32.29645476031611,-6.574554233716231,-12.504906472880531,21.26469138672655,1.2204063072860851,2.5161089005598867,2.940979021439191,0.39016469760781103,11.29621119877896
-6.93440142435867,11.54827158749004,-8.710441065228022,5.525557989517632,5.5167455257167815,29.88961471029282,-23.233596969929494,-2.72134120323435,0.8895566435332007,-9.523602142950484,12.078607269667677,-2.0155746826858914,15.199524413881383,-15.85783858907374,4.549671818313731,5.560064419713834,-5.087117071946196,12.83578168216164
-0.41192298192034604,6.789749316906879,-13.86947350696791,12.611426175536117,9.887514817501112,4.500173894559595,-0.2749341700112793,-2.2530172419838723,46.16482527183538,-51.14838465361945,6.805701096477308,3.2976372890033936,8.060626968795574,-9.987295108342678,10.685363159815212,3.101042279787042,-0.7985803234931277,5.391555139886577
2.302188208627251,2.519691726954222,18.569186430940942,-22.393959486900854,4.0046161358163115,18.760093802531884,-20.481357880483785,3.4887768876433767,9.211671024178546,-17.57674799572816,7.587644241487652,1.7745396098237576,11.078634459190145,-15.152884101907645,9.399571034837619,0.44680755337731126,-0.6116214563171196,8.690351301856525
-2.6983746085267137,5.183484154125115,-4.755275577516684,-7.594683633934212,8.962129286535143,-13.171806558327468,16.636934865539708,-3.172002228486618,-2.937061028507549,2.2251065319183545,-1.0054956199395582,-8.147399549185192,17.90578883630974,-10.651191630558962,1.5712159349359518,0.42944222456359826,1.72385736587683,1.9310270743349314
-14.53468872305331,9.3122673866289,-8.15812560397516,0.1724313638612538,-0.728608748059481,-2.622326775701069,8.441647916159143,-1.9225373561648222,-40.575144424010254,37.65215831527187,-5.0086711707118035,-5.276458296951288,-6.419386032267459,4.689648583909903,3.2161674581517667,1.6817450264289568,5.133623248192972,1.4223800136672224
-8.49934261955961,-5.79742546841981,-2.8700183420006224,23.17333315977799,-8.563433515110901,16.32595403888415,-22.312976148351428,13.487273891876445,-11.025420331052585,16.242363427042836,-8.328201663522947,9.117805297465791,-34.16209732207426,36.045470583903466,2.2248654297622803,-5.171420424304092,8.543443087245038,-1.7224898176855579
5.837208650641017,9.269195929321832,-4.809179882723329,-7.147728397216565,28.427066215876945,-7.890278825844931,8.456366477218634,-9.873056889411274,20.76967835308878,-14.835590722866513,3.29393320615918,-6.078524536225046,-7.704283926733067,18.669166941926058,4.749746471550322,3.4054674910848277,5.898538836871588,-1.8394795492448264
3.3769295856487864,-5.449747187980613,15.614670743324739,-15.691967175472346,21.374351677838895,2.4645078024338334,-2.0839345860735095,0.7514931845016257,-9.058045224737752,9.653664886445753,1.0486902482331906,-3.794423944288886,40.141047701611946,-25.954584704798613,8.251707727561914,0.06824735431393769,5.597477809567305,-3.4208916920028987
-7.286294728608902,-4.445774356496632,22.365813314482736,-29.217619455557717,4.653951340214418,-1.8292150896674908,4.856070677725823,-10.303981554300023,-30.48802523976395,22.81457657407911,-2.8567229479165137,-8.05370361244914,-18.65540570576394,5.691395575166628,4.136865852745335,6.203969651812578,5.5894489561895595,-4.513618249330424
-7.79280494431441,4.663784168313533,-8.481912404646705,-0.9466426274174398,-4.058080715965901,19.072882541311863,-18.47826171876989,0.027588235880901424,9.117227379512915,-19.68947164046747,4.663820803777088,-6.649152350759267,13.077327071729448,-24.773933975765864,5.198381997895122,3.062353248585659,5.972111360359859,-5.703652744729791
-17.283513671169768,11.917812318376225,-15.306486050260938,14.627929972099244,-2.0273254786249737,-6.998297094454049,-12.808692059854915,16.80457398191009,16.39688123112083,-30.454804538778312,8.571019479121254,-0.5573536022924481,-7.338718592587634,0.13166474061641154,3.4283180767853563,-1.2510048758511036,1.9602369662481083,-6.014465071708997
14.63297772264923,-13.055273678186492,-1.4282841833525675,0.9042687655214667,7.718828567113027,-15.002726729266652,6.532506436882775,7.311638131001194,5.218304660995534,-4.403222064463089,3.29837181174502,-3.059765781520933,-0.898437364184121,1.9890038513512747,6.151000625834313,-0.6813207072847769,6.835279530174376,-5.055471713502566
-1.1071847812078737,-10.391305684916007,9.910137944376999,12.863668289978287,16.87947413892515,6.387864047669623,-18.170398113340372,0.8461078426016979,-35.258541123515904,46.258055631232175,-11.544763257716392,11.820564518354784,12.573642927390702,-18.225360982768578,8.971826795013818,2.622939176205949,1.7492962092829614,-6.928345286424882
-25.63621534670236,17.272930800747474,-5.803325213746008,-7.893212617898529,9.341083913583052,4.242952912135019,-10.842033033534966,-0.34588401847269346,-41.65381125155728,22.894708191233697,-0.31332068174767036,-2.9873986354065085,5.1474018880946595,-1.0378869049263928,-2.269580838895858,0.5561856294232337,-0.3092326265011893,-4.406460576398121
-2.410276896462618,-3.110580269235811,-1.4976553271614188,-16.150852224402783,4.732862630215712,-41.554981440924834,32.033274018512,-2.612085994668792,-19.338708712067763,16.230773225605517,-9.394737117715819,-10.666692112964448,-46.81034043202662,46.61770655096399,-8.041679898934504,0.8333829931158712,-1.586434119609259,-6.474377198386129
0.4055337684076523,-17.7324503788263,-2.173245903788639,1.1768753177576117,-12.27745676686338,18.410376952178595,-12.98386619143004,-1.850868706794035,16.25681750541213,-29.301006521227077,5.352275912986661,-10.631374093502778,19.88649279171176,-41.96036206211524,13.237883999409073,0.1341705580695911,-2.9612270789588013,-4.44060370973639
13.475753147178,-1.7876396754377781,-3.9237989580088746,-7.375669747757801,17.49071357256971,20.95291831211464,-29.973721197806757,3.2073224889900027,0.288003165365903,7.6879367176201745,-0.5065633751143204,-7.080731741781083,1.328533101025518,-2.021977252705346,9.712844133556345,2.6578331939744793,-0.23432783234054622,-9.633485246540104
-3.04397036143866,3.2192863305758603,-10.069688834029972,-10.362705163733951,10.930633302389229,-5.606638234086846,-7.510339848855201,2.8943750713603915,25.0413892073412,-46.82849328997623,7.5995750607175205,-6.069549006593532,21.73641881161979,-32.2029994318269,7.457809902204767,3.7168010087926273,-4.831691113757502,-5.548910799625283
-0.4224177732481474,-9.05945119735062,-9.575601607937493,15.067670836601252,1.8318762154360497,-3.6502509709077646,3.2336182271111396,-4.840520018123841,-9.386914703753565,-8.960775217139702,-2.0680842212151616,16.42597440028769,6.597286972129169,-14.142263413341709,1.0039401439376938,3.115759750772386,-2.983574663689555,-10.058293628432482
-6.68735357319533,-16.55322846023814,6.83593781553649,5.340260644012672,5.819675639574887,-32.26087704808883,28.62573973278296,-8.962034925497138,-13.737754907054606,-1.6600072773036603,-0.30988673174605497,4.643265342332923,6.693155154366285,-8.680556012773138,-7.5003030512790305,2.710207308438907,-4.358093797075889,-7.04815311078729
1.794402568024044,-19.6527016056847,-3.60917044365707,-18.060241038102124,-6.598611830932887,11.39506018948613,-24.987750588766676,10.452012291309538,-33.91028871742443,32.301242870432844,-18.376319028681404,-19.542345643635265,-23.484490910035717,14.55366644005341,0.011753586669781768,-0.8202190556110862,-2.7051521068472226,-10.092961262087604
-8.083115759616454,11.818346195994286,4.499913622388439,-23.297418394955706,16.140293934890607,-8.622036535474914,-18.835205782595526,12.385373464528186,-14.337280040277765,1.710642573838812,0.8623872694468562,-3.2980241390870098,18.214337550540073,-26.86274100924319,7.035942873558762,2.6808856664720877,-5.642052186533123,-7.278519507279535
10.946445449500871,-9.739102493030746,-14.247667741499747,6.0352221074706485,8.117410914156654,-9.98671453241997,-13.073794864715847,6.701482776909126,3.672030432197011,-12.668860396929418,3.6944656138578873,-1.7027383265753673,-31.88473938662247,15.607633387260343,6.150267030080889,1.8852232631895909,-3.4030187669003222,-10.323801922977834
-11.918767345968952,-8.445007754058006,9.485072962053149,-10.922934511229998,-1.3699470348361462,-8.324233663812429,-1.453422855751882,4.338009293220886,0.5860795117604951,-21.1889897619445,-1.6768431562696198,0.4781167573577112,8.154640683668529,-19.072833551668847,2.628234084333241,1.4803645224648259,-5.460851249959896,-9.17010602706492
-8.90427415018047,3.005100412662439,-20.006456991895973,22.99755770605955,5.158946649130774,-8.419843783076004,10.068788413713975,-5.3497387480519105,2.577127867331569,-20.041096839801213,1.2526098618039883,13.30328608741793,-26.709110558757875,29.25454365676063,-2.7489043745830237,1.6616238082732706,-5.565452722121492,-8.602705286869545
-5.401078780831536,-3.221257305646377,-16.588137555203854,8.47877222078446,0.6528882989028482,-21.992493394173252,-0.48015155798351117,3.712856933503219,-15.843506875460587,10.794652015737496,-12.126934864231215,0.4440883031625442,-11.474093224043918,-2.889298941631458,-7.6373732891070585,3.8938657350066723,-7.037184634032197,-10.281824891715358
7.965970710560036,-18.627880459983288,-3.209543759488692,-20.885032513294004,-6.001278090517738,19.806505556470352,-28.315011759313794,2.228475715337988,-6.628227258666798,-13.25334911839012,-0.8968930586099684,-13.978016586434721,27.101464406842943,-47.143948792030095,6.8107601272381135,0.9504156798994483,-8.704152205587803,-7.469123745537392
9.614522921920997,-5.616561589667007,4.11344958757872,-24.8588710490388,12.833576890159204,-20.622620546500976,-7.614472873702395,3.77154465797184,-7.765903362056454,1.2733542425186803,-6.464155196811413,-3.7907558127537855,4.152978680588328,-21.183935044199373,2.020677123794487,3.3783073677164634,-8.710856277672896,-8.367894322186515
-0.06478174782220836,-3.2504187739008463,5.478495492000063,-18.872669154015952,7.059020824179705,-30.38754083768039,21.48413708500844,-4.841730207407979,-15.057259985421496,1.0536333028887475,5.058506088517872,-7.764253589622215,9.916194027855564,-17.100509246073536,-1.2065353622962869,1.7047374445848478,-9.889369007670705,-7.118713808251985
-17.06796624808552,-0.5918066546109289,-21.28271708564544,16.89809225713123,2.456684724560956,-23.648643309471964,11.909791273677783,-8.962687134409427,-20.0060798090608,-8.346023267682694,1.1510550751583744,5.156650270475023,-6.781552820886325,-6.9635587951259,-9.609273410740887,5.10953058107982,-9.505271144525679,-10.557664867027048
-18.05482071699229,2.749884692956843,-16.696627707486005,10.577314937417329,-10.836876186114514,-4.116936661263482,-15.927037994663902,0.7838174384085252,-18.706057735456106,-6.612807864750461,-3.342539778299097,7.237156584500788,-44.670718652300025,13.816830562965634,-0.04266489744979918,0.7995195831187067,-10.878923096853358,-5.696308139983951
6.642781348380435,-24.085211134662952,-15.724709914768662,16.56035929086874,2.6280841187167967,-22.2814859896545,-17.78738909250368,18.343003919551634,-8.227464496228048,-8.395383667950169,-5.980842788894059,5.996910542987731,14.121581508672604,-32.299584807508566,2.395238413023505,-3.3150221581108883,-9.713381307154359,-8.648210025846346
-4.9878145555426805,-12.248407329191341,5.070892101138149,-13.395698519088725,13.456571612582128,-13.785852831749615,-25.410021498983454,15.198812280742048,-34.07880835527852,19.90050996807857,-2.6622364608619575,-8.720493454526167,15.296110911914015,-28.123513118864533,1.317760114945579,0.9691516545609473,-8.645401528308751,-5.253036647440037
5.745704127829827,-0.02155747236034644,-10.658338788894785,-17.57116629183971,12.957032597262062,-19.84161463533834,-3.833457457765001,1.0193586900606584,5.6945916103585255,-11.765565120841055,-6.082234363908731,-10.352150550778607,-15.267836590980526,-4.3194795494500084,8.443816009813528,1.4448193247997878,-7.186691587241097,-8.987593726997124
-5.981554351421428,-0.39315989743755253,14.823158258926131,-28.974359124314304,-5.1206436828950075,2.7159398309750875,-1.8865595348443671,-11.01156222857924,-14.495116625752104,-5.5405548559355315,0.8492609201958927,-1.3395045526616383,7.3919656838785075,-21.435276141524504,-6.207533346572851,4.948018188837202,-12.07563183968811,-3.9337063196162156
-20.24739979866512,1.9690322632447605,-6.57189789966376,5.422877581076632,-4.057162861678251,-9.786044697559854,4.552142297323799,-10.05394179323936,-17.888945954527014,9.180559666042901,-15.754993290945237,5.035991725514264,-16.042411170445348,-6.227589318153997,0.4307620374207617,2.494231395985266,-6.808060248907324,-9.329985021127458
-2.188007554242443,-12.564204524659516,-4.627590870912316,4.955252796186157,-2.4075120077977132,-35.86287285501453,16.84986531482818,6.138347378158581,-18.54960603730284,0.9519850403741005,0.258196985458754,2.914873857932923,-41.23436026273653,30.95187057460341,-8.262963969177699,3.2632814874441234,-7.595157489228798,-6.62149406194278
-13.52305774207029,9.718869623027105,-21.239089162322934,5.267844612076148,-9.449193369883957,12.768046220563647,-12.845673544620064,-8.52914885842451,-8.273840236881325,-17.23780013016188,3.868607209693895,1.86760048814907,6.426624796295764,-31.871402147411324,4.137611975866972,3.251195822840888,-6.624299931297213,-8.796746784731031
-0.44312370005335744,-9.893900457426579,-4.354814485022687,-6.627822867221265,11.439428198293161,-21.21991180823366,-11.681789848757896,11.374254443420826,13.621963625239514,-21.65796557402649,-3.0682716268478494,-10.215387934000617,28.208561702774034,-39.22627178941957,-1.0399890844601014,1.969680155783633,-6.6298996589536525,-7.847841430387668
-3.866786513057218,8.676816122108479,-5.5380500516077,-11.297855221104017,-8.199740994849021,-7.746640794248937,-16.084809706079355,11.746168160793024,-6.866915235712542,-1.3708447161735968,0.5416265414829444,-4.329742253170074,-9.28750364537335,-12.011479700276125,5.40388317461904,-4.389923163399922,-3.7056422141513403,-11.001482711916484
-6.7039294513473555,-4.980226712726722,-4.866612506236976,-14.211081185554217,7.220371637089796,-10.875620726855217,-10.722456286054381,-2.43286417547246,-0.4034703135343811,-23.174331864352684,-3.2707280060561543,-3.913319671836075,-4.59518617467595,-8.138049094700984,-5.0468454412508805,0.9695111592878547,-6.836034635543314,-9.5661626943057
-7.196700831679143,4.897525819943591,-12.88753263059384,18.3244248654362,-8.51220040643582,-10.977647035523955,-22.45059584411909,18.93557678946769,-17.476740776041762,9.417420456800574,-5.91145940115892,17.10849694359175,4.49196178977993,-23.601994297561454,-0.5557657998921517,-3.339068188986806,-3.7161964220131027,-10.57326858563965
7.741049022765237,-20.186926858275456,-11.827095782895931,17.655277444867263,-1.2950881587052638,-3.755779091513965,5.469931562867089,-18.09525640294018,-2.1288275829693806,-18.245774186012248,1.11565075742535,12.641254838101137,-12.299966050658444,-10.74631815909861,-0.7520978836967589,6.122190003110594,-4.697842608488111,-10.409492887829044
-5.250703892774235,1.7012456012267476,-4.322054231482378,-10.84734137069253,-3.9413117390666432,-36.866992763128025,25.186846811947042,-0.43770221265816467,-13.052017181086173,-2.1584217850988328,0.9158087092092915,-4.424223636663957,1.7681705009025626,-15.567794702988326,-3.5850434078655855,1.325507706993096,-2.8472680635870766,-7.609997345212433
-10.91750267204526,4.057109147703358,-11.466472358326655,-9.1747270447943,5.717416089673177,-3.278402287575422,-9.101316073087494,-10.41723720001011,-14.503559889381876,7.483400255013597,-6.901620947700193,-13.579812345312625,23.551480235141184,-36.69919238206309,-6.320199932828565,2.3883726086965984,-3.8286159875652155,-10.866347628545347
0.21346627384792694,5.044991045863261,-28.27979716414883,9.294017430370644,0.2392502528953404,-2.210267832902881,-10.283838154395411,-5.845719318043211,-6.581095268842414,-5.140860678563101,-2.3168056506792576,0.3114391840986266,-23.611369630680585,5.157598565228071,0.6128767814612859,-0.2596807685104876,-0.1222345320000855,-9.240902587383083
7.048143929043322,-23.65586512785587,7.348303084988176,-0.5589759816234796,9.019150135728452,-17.54905723270255,-23.771553295520864,24.40983205786958,-4.421553499667773,-6.534598170819564,-1.0526454524787427,2.190403027598231,-0.8510793745809944,-0.741272850020092,-0.07124755604346333,-6.228028554037896,3.584310747040286,-9.960359680635586
-0.17923082882591412,-12.903790518158141,21.686244330021996,-35.706308940228595,2.955088499604618,13.889793642210265,-17.435049141101143,-5.003449752267612,-38.29881315052728,32.501853879704555,-11.214736400221371,-10.09139028606735,-7.290261978906176,-1.367625871276477,4.32291900907604,-1.2586479105057937,1.4315615071784187,-6.481673950060561
-11.702871078601756,-0.19936787960453461,-8.020216410597994,4.341842029073648,-5.7457380745557405,-24.98533817586595,16.73362537803518,-7.853782041050598,0.5778704691012617,-15.767826581123543,2.1583891335877627,-2.5490463612176697,0.23579696557407193,-24.26091385320923,0.6115673327539008,1.5623166413841905,3.0876401659066937,-9.156588424818255
-7.112296229887312,11.039371963078722,-16.242724323301562,13.23620724748794,0.006753763901698129,-12.688215313715975,5.979470741010202,-5.235238538679954,-3.125270302013597,-5.735946715478985,2.249760045498326,7.532015629449766,12.449605416876722,-22.057101991076756,-3.88098624602298,1.5512534726776597,-0.5296169054312729,-4.508356486460188
7.147095741574322,2.7457377835582975,-15.481458270859456,-14.68735243630708,0.48567911850840373,-22.266817592414792,9.092463873803103,-0.7611575036839264,-14.935028522824798,6.248979947254642,-4.0069269176333,-7.5830016887534075,0.5421233020149043,-8.916530327038675,-3.7835801213498,-1.2918449574762882,2.5916985781551922,-8.84584120982532
-7.011200995866915,5.388935821079604,-3.490277676003021,-1.6932656683502412,-7.4340312760078415,-0.10703473247466455,-7.619297754058556,1.6621495830341495,11.047759533117791,-9.989285528258797,-3.9161680761118864,-3.9481144478112498,-8.044831141668581,-3.4917935444420785,-2.904880174899527,0.9432906814393553,0.5373485948183352,-4.102380098094971
-0.07469944402996065,-28.492703701454612,6.254062537824102,8.272495101023065,9.939521177088778,-4.022236837304694,-5.873961759318471,-8.512355080418255,-48.81157814143944,28.558338976956875,-2.1655372340271652,8.377930891948196,0.6537921685112158,-3.439070830279892,-2.7097664241662445,-2.973987414082843,3.8543753656770825,-6.977465108892743
0.9054190273987199,2.274230542966629,-4.803394397874676,-12.134226364494692,11.687721459963456,-36.64916974409758,21.652821025773225,-3.8428483636545954,1.9743597252413885,-8.578884131777226,2.1238832492723594,-9.277330034665138,1.8329204590360733,-10.711480612382507,-1.1474401260657867,2.8745246573304684,1.9957492370665584,-1.3575864873881933
-1.4340740726278822,5.598482756968275,-11.85756800846276,-6.076613929818852,-4.6308959569056025,-0.42773685004585005,-21.329462132534594,7.076786779997597,-12.280672206574227,4.968164343218543,-1.4972865894399847,-4.959978801070525,-6.069976917438348,-8.609511669670006,-2.0265668161720822,-2.6052527562753482,2.871753421372199,-2.965656748665509
-7.972086028550238,18.589987953655665,-0.16212445342598425,-4.902790452819861,1.706924434843486,10.109384619197996,-20.17060490490301,-1.0468061303347413,13.698400111282968,-18.399504819019405,7.088446197382593,3.1656455292881462,-13.191475045070698,-0.1605150510044968,2.4654591897153297,1.4854289250952597,-0.7442786256390026,-0.4733933854541057
7.073038759608831,-1.3300342045602678,-9.26843283135053,15.118086979264138,-3.7720218429904966,10.29447608343666,-6.609353090122352,-5.752348603095665,-12.179641137113796,15.753147004018238,-5.029578095727407,13.048730931859616,18.457280112201314,-25.208808645312555,0.5120379643729368,0.40024311589718575,1.890010687844053,-1.7910877061404369
4.442900760436543,-4.453799024752689,0.08193460612489467,-7.928976511222497,13.210109733866812,-7.196775797216352,-12.97039861264922,6.827556773878074,17.50875023945861,-27.8298461483185,5.899307072452759,-3.4361513329323072,15.632976525223821,-16.66348374481217,-0.953144143169401,1.854143460566947,-2.311509703791952,-0.18036901926926419
-10.686628018815393,4.82409074642181,-2.8731935417016032,-3.144448922952907,4.801004202242195,-25.567221632343536,15.825244315055247,2.9033302861513404,-19.406225783982602,9.057059101991614,0.8120048386954135,-2.3430178936782875,15.250232987272502,-17.982192384249352,3.343417816507081,-2.649101248495875,2.0810891770116346,-0.1335057833572204
14.41964362671501,-3.4772949578404924,4.32748020530817,-24.63070536336143,6.938687632616927,-17.47267521690876,12.393755604527321,-6.392047247263342,16.33540191650653,-18.412561299618815,5.197184800802657,-12.480901906794903,17.60201567984911,-20.08272136224495,-3.4930780226696507,1.441504477966046,-1.9246335094177225,0.8885917858358656
2.9050854623722353,-1.62316118695784,-2.9257769403891527,8.472876179305942,-5.377243730376584,-12.405754264921983,17.55609146909972,-8.167755606706804,-11.205906502147226,21.013300178696632,-5.750219389330249,2.7718492271862565,-5.339453918170289,1.1564354883536687,-4.470197489189219,0.2585537860279383,-1.5355079652935457,3.374201869054705
15.024534108421854,-7.875508001439132,11.598074793321231,-12.038466967880222,-8.904269965279282,1.9384370899390717,-2.770278365440432,-7.404340931300546,24.046026600948743,-8.018979301937435,-8.885323449266266,-0.43308991724702484,-20.858840023654647,10.480879254066092,-6.131021562330261,-0.6314698402352557,-1.6344154766893253,1.3661927240240637
-1.8595217391918275,5.402802996450821,-20.94965278366763,36.29808492948545,4.951467904734459,13.743333656567986,-28.85846918470333,14.257850627437529,5.390237520410235,-23.37923508878494,8.38972118760243,28.490989783923467,16.650014784709043,-18.476933765275312,8.126253427077316,-2.205151442547909,-2.709639156185542,4.532671943814953
-10.246499582510147,1.4924600441084577,9.198359253891741,1.2341287691249283,1.3261345986483164,-8.43683481315522,4.136279816466631,1.251563734201856,-31.821135465550235,20.636360595248355,2.714878203935485,10.148345151055901,-2.287223470283334,-4.368059100340604,2.3635672013438143,2.5688587053676,1.0006331054443733,-0.11484769016736962
-14.335672330277287,24.339445322687872,-13.291660813444327,-7.853652569794773,10.298292159073174,4.832607660611966,13.20491099380762,-16.735249697207493,-4.969607314696944,6.838525165007155,-3.253256171998942,-9.757202069065052,6.119778912624943,3.490392143681021,-2.715650976785486,4.706041036690106,3.734599919302733,-0.17384007193263873
14.974976107422375,-13.069287925453729,15.976430956041375,-16.942203913799176,-8.464727852821847,4.234525667418055,-6.340125611823041,4.829338862702044,-21.576312549291515,36.01005220751726,-7.463868673298075,-6.029955760641844,-34.30202276750719,36.93489158240054,-6.330150560759805,-2.043707188733537,4.3203735064579405,-2.382695285856693
8.348459349690893,-5.8493264981766675,-5.5379725286687576,8.246355681350916,5.389536393869846,-34.938465115268045,33.58847323851515,-4.954190779556312,29.59095265230125,-29.5464659330342,6.391884231454755,-1.2288549464501421,14.047119899082178,-14.973704652172698,-2.2298472717254336,2.241785762300877,-1.5389817876811942,-0.1006921518686914
-3.257710295329408,-2.24359314359465,-1.759471350478508,-3.382794366998482,-11.030521110222315,12.706198110476965,-26.191387208452834,14.071328575970469,9.662919993718987,-22.250341065965536,2.864244000447096,-0.9203920845259772,14.836994180054944,-28.89362130034926,4.8976765702688425,-1.2854310822784563,0.023937842684597532,-4.460817341232561
