Fp1||F7,F7||T7,T7||P7,P7||O1,Fp2||F8,F8||T8,T8||P8,P8||O2,Fp1||F3,F3||C3,C3||P3,P3||O1,Fp2||F4,F4||C4,C4||P4,P4||O2,Fz||Cz,Cz||Pz
1.9472699646397862,3.3491620782770735,-2.305190104588548,-16.702146083938885,1.0381523050032282,-1.088730583378318,-6.419007277142825,-21.039375292254128,-3.050274716977455,-4.44354665827099,-4.751878940115374,-1.465203830220735,-6.311588609673942,-5.054388724499834,-10.130956677792085,-6.012026835776134,-12.435669590011955,-12.188865970882995
4.183343313950262,-1.1362790490354961,-5.788921889836322,-19.659435215638887,8.992704738161219,3.0323469051349123,-34.17012761668966,-24.94238527768868,-21.749674486822034,3.7660496298245993,-12.666802661672715,8.249134678137347,-12.34066618161258,-22.89907577870946,-19.641807033707178,7.794087742976227,-39.85652000032536,-17.213451724316347
-0.123472995698096,4.730812018278663,-5.857726620357344,-19.39899264684874,8.549092569839944,1.1959205087465614,-27.06082412848764,-26.505707481609,-18.380111063918775,2.4077222650250447,-13.16268062941203,8.485689183709482,-8.311586059828793,-20.722795409013617,-18.606997803851826,3.819860741212546,-33.583997790771164,-18.52896070532614
3.4802053786931584,4.836886689425983,-7.980401255343542,-22.0733998946643,9.961440209749902,2.2888923701797506,-28.74416859418561,-30.905274115050574,-14.230972672354778,-3.440297891445222,-14.247509228140093,10.182070710082213,-11.802683956584879,-23.91659708988626,-20.015022406118693,8.335193323310975,-42.54469497583612,-18.18621683675613
4.642696900132416,7.971119597877386,-8.055282576556559,-29.635951583483042,8.639895848953575,2.6003163373512796,-30.138050855834642,-33.94187019846875,-14.575776774974777,-3.1332889825523305,-15.140086391652428,7.771734487182116,-13.341100543515056,-21.73816626797317,-17.225166715474273,-0.535275341009118,-37.929641182023616,-19.01730355061528
6.8797192209352165,10.031863174878834,-7.058908208209146,-35.64137240286177,11.12759029402782,0.7630321615119549,-30.851897249311435,-37.9593450449673,-15.60586957801823,-3.507264846502313,-13.203711057576928,6.528147266874518,-13.02443402579078,-24.4416022881239,-19.90555737854008,0.4509738537419756,-42.29783599284722,-19.94799219283407
2.964638642755241,9.749543820263963,2.6260670019012835,-41.945290460444966,9.807282230337552,2.3435792411011427,-24.245036255488824,-42.76244227469678,-14.58683096382611,-4.366882260464261,-13.614299349122607,5.962971577923908,-10.559650672545159,-23.530718106556126,-20.145925933009394,-0.6203223466107795,-40.31707435177708,-20.09936704455693
8.132101739767032,8.100715471704941,-0.8756476737451822,-46.30170407997953,7.9993973990650264,6.46308618049078,-25.259154338594,-48.44887413371258,-11.811629255199218,-4.149589887811835,-17.836771149790888,2.8534557505860954,-9.267052189798505,-22.228255168883173,-22.63385046231575,-5.116387071728605,-42.827423991928676,-25.42855159123629
9.686641424117967,11.140134080736416,-4.966159054402557,-47.343526351779566,7.75481104332548,8.92231843271565,-21.491768041593364,-53.84679751501051,-14.409273045601616,-6.371039147268818,-16.105404026913625,5.402806318494686,-9.146576200438385,-20.436591388510834,-20.337978257102122,-8.740290234487379,-43.481188721922805,-23.630669251004026
7.432981341819987,6.074611292757216,-0.3679354882819812,-49.85610291249714,7.999350811049423,4.740779502161238,-18.997704022022337,-57.491391232624586,-15.641370257609053,-8.785075078404397,-16.916470671085886,4.626470240937191,-9.70987074048377,-18.937023937399665,-22.73111267586779,-12.370957587661756,-45.110498179975096,-28.377799606363492
7.035309523249697,3.646473683309766,3.446270201675718,-54.91378001315168,9.61199920962482,1.535821303810609,-21.878631278939775,-59.67566844779043,-13.847729700764065,-8.364281110748351,-16.65668163394748,-1.9170341594154907,-6.464615648500358,-23.393736561365117,-27.274152989586778,-13.273974013819979,-47.81306346285951,-29.904161847854333
8.493665028422743,4.148669207584254,4.8163260314496,-63.10260977625193,10.542006568197847,7.6083998278193725,-25.2517037837796,-64.11065814611055,-10.590863982918451,-3.2531338899840123,-19.2323910206721,-12.5675606151784,-6.246787803827603,-17.595578756249452,-27.42402904310716,-19.945559930666878,-44.26460553472733,-31.627767285623616
9.268985614844205,3.6748625886016315,0.519577798477413,-65.14520698626143,9.617542874214966,5.380169784436887,-25.5036231205063,-64.44863690561702,-8.409861464075107,-9.467476866663056,-21.518593137571457,-12.28584951598497,-6.8101934758250975,-19.023319885651965,-27.96596643214851,-21.155067573824713,-43.84031698672302,-33.646261231494805
10.142572130994905,-0.21641573433277816,-4.2680614279572495,-65.53392205922671,4.494885203639431,3.5427178019112286,-32.20488271305346,-61.76386430196274,-6.1328147095780965,-12.749254434290284,-26.64037508318757,-14.353382863421084,-7.080531078362425,-21.62221344270904,-29.290590321744446,-27.937809166629023,-46.930876335727184,-34.29944681322202
12.774644999867947,-1.958700995115831,-13.355189054842956,-67.00326022994494,1.6195071902411646,3.658615263842736,-33.05063905136186,-60.25564227622416,-4.540969400397012,-11.145286658043812,-28.250020522459643,-25.606228699089357,-5.202236408452285,-16.700753427294117,-30.22599989701218,-35.89916914072347,-40.547849683266065,-33.09901715758498
14.13785302012999,-6.239591485116058,-15.80408211529453,-70.72519691544261,2.7493108632557544,1.3333111567592155,-33.314438649357385,-56.60362140738149,-5.782777876406365,-8.1712274951586,-30.44918861647733,-34.22782350763377,-1.3705571531129959,-15.098981349270776,-30.479211859544492,-38.88668767477607,-40.21886121001128,-29.36134701454083
11.790791325046708,-6.7113611811863425,-17.27883185794432,-66.83637681911705,5.931204026802868,0.961450797889349,-39.246402169835854,-54.811777374517504,-6.440199572127051,-1.3856092309787775,-32.35899102752472,-38.85097870252211,0.898896444716117,-12.03169977433641,-32.78463070976113,-43.248090680260574,-34.615654501523395,-30.50840066234378
9.542150304574186,-3.569352949466559,-16.412170640481495,-73.01292119792768,3.2549722155701826,-0.2889935801488608,-47.330872964870856,-46.67686290314552,-7.5874482379163455,0.7153684426567191,-33.39350983970236,-43.18670484829007,-0.1516459716466132,-12.577142499858734,-32.06403959736937,-46.24892916370162,-34.38296261126955,-30.19239811680854
9.14980769028535,-5.602791068062864,-14.082957253106258,-72.36010506142782,3.119243426127568,-3.7851839891288748,-52.58732495117737,-38.93725951025204,-6.685399496621294,-2.7471909820554714,-28.669883732113558,-44.79357148147068,-3.2525642963587558,-12.536057490567881,-31.14949649636513,-45.252406741120666,-31.024599464277017,-27.53438994582965
3.8754177054511563,-4.217822331006551,-13.7091501526648,-65.75690582877522,-0.3353845660558816,-10.11302089823247,-50.62117512544185,-33.83908721450307,-6.859076146348391,-9.234163691543024,-23.75462670636644,-39.960594062685914,-4.497478967377365,-19.135147793881146,-28.185485746665684,-43.09055529629116,-35.575924962170305,-25.561733440908462
4.4613699433756455,-1.7582606705193022,-6.696804199080258,-63.16446441432245,-0.7610966477638104,-9.213711512433477,-46.60829563944435,-27.8666539224268,-3.7138532327747007,-11.225881745921471,-17.182892574928974,-35.03553178686862,-1.5425338384723233,-18.80001730290892,-22.097751528279755,-42.009455052389825,-32.80236487561493,-17.438351277659375
5.536526762741564,-1.544497645828745,0.6063930461527676,-59.30930790615574,4.185954750627468,-10.169380548248448,-43.771400456657354,-24.24264618293323,-6.8201608722015115,-5.597276170539519,-16.474344323175643,-25.819104377119956,-2.297935098113318,-15.0463739423766,-18.062131341984667,-38.591032054719655,-29.0517035372488,-16.445657764401943
3.8782206980139406,-3.8695350812607057,2.9269906801959777,-53.898501762515906,5.326003646456231,-8.780700542633902,-49.92311394524809,-20.330280733593938,-6.314537117911064,-7.778249315806839,-12.644483917569096,-24.225555114225372,-5.005772328289101,-10.120374538120432,-19.69193683698063,-38.89000787161252,-30.08577686227675,-15.356938975523821
2.318564070526512,-4.241145728161491,-1.3951243214857456,-42.928110940827985,3.342715577525194,-8.465648279655875,-44.35999698514185,-18.766286906983435,-6.7868637834659955,-8.68661149742195,-12.529364280284613,-18.242977358721134,-6.638584204241349,-8.221330260842574,-19.85812628170075,-33.53117584745458,-29.849832271642605,-14.95341290753219
0.17399046137045548,-5.100802066586314,0.726255246234917,-41.925742064807274,1.3611993344855586,-6.099132509341613,-42.70728644456931,-16.523239771033253,-8.823053552894251,-14.67009675641164,-10.269529160857946,-12.363618953568746,-5.047828826060947,-11.107108342187201,-14.84967693232569,-32.96384528986836,-31.175969647369328,-15.430348386121409
-1.578885053979068,-1.6633039709123052,11.537328877326608,-49.52420637819448,2.7995366614897974,-4.903815686914795,-39.98443271352792,-14.870649663771161,-15.157487607326944,-4.634614983261612,-9.575977883065761,-11.86098605204877,-2.772535633604826,-13.699533793425802,-15.799540681606967,-24.687751294070356,-29.083667821323743,-13.564990644899206
2.431150825962972,-2.5225618657144335,15.99887748136672,-50.879540685609406,4.23976721048896,-3.1218161592864533,-31.308540657395913,-17.910096135943277,-14.071199801033423,-1.1390867860889866,-6.737718558631846,-13.024069098183322,-4.207230993062959,-7.209437117162253,-11.867676083032322,-24.816341548863264,-23.865921812897263,-8.673683519913947
3.9032277109522755,-1.5261675531445662,15.57584144853044,-49.40977294379519,3.8264541782394685,4.129794728341872,-24.19924492774284,-25.543870709528328,-18.161999498418872,7.926064051776114,-7.7118726117088805,-13.509063279048556,-4.761929093179328,2.0154018163240117,-11.9409034502235,-27.099436003595294,-16.79230232838323,-12.572958992982727
4.790537861167186,5.0368435346413465,12.514424466168432,-48.82589813256863,6.247229039114758,10.893935747767435,-19.535450696735204,-28.006143482327822,-19.812542075386823,9.084084856033193,-8.103838052606402,-7.651796998574634,-3.362322735585711,6.650626057654538,-10.94098457234197,-22.747748141892053,-18.312206004057604,-7.9773399445093105
-3.5984201939919487,12.478870198715633,14.139034066647753,-46.100521032033775,5.935660227768816,12.287760039731008,-12.824884347324314,-31.15631788067452,-21.854859330975323,14.053918883528794,-6.741715361074377,-8.538381152084371,-5.574831072692962,10.01657262214147,-8.379593406640764,-21.81993010329112,-9.480048127877943,-7.875246212369989
-1.634403331458497,7.030141304362381,16.34812352872666,-47.67904116359587,7.286405335433955,12.901220721717843,-8.364465867279506,-33.13883082820208,-18.72241565242311,7.9916029996934,-5.3833342715446335,-9.821032737633937,-5.930548696927747,9.86708759403237,-6.112188123991961,-19.14002141142673,-11.975862399838098,-7.774359720704828
1.8934291542254464,0.40955580318184737,15.919067123026952,-49.26450066977071,2.2915886068578812,15.957061690227901,-6.740118189518707,-32.879376205911036,-19.887965664557367,6.131756912002051,-9.497515701507826,-7.788724135216377,-10.777156888608449,9.522508470746132,-3.943412873584336,-16.172782806881443,-14.178391731128285,-6.40506544804601
0.3443882238161713,-2.79300245890855,16.855913212239304,-46.75525130874149,-0.45485024848304345,17.158379952229996,-1.3110886282656935,-37.1162622168002,-20.37091672828699,3.1032159929617347,-10.588020795210348,-4.49223080100222,-7.419077788665286,9.178125260695278,-5.681877744310826,-17.80099086902198,-16.08764879525522,-5.5251360075136695
0.5545529588421445,1.8170348237516396,14.275857122753083,-47.1826214593504,2.465167883683681,15.821607964165892,1.1842678684148602,-37.4508425349653,-15.190674505937706,2.6169842392443052,-12.65879851176733,-5.3026877754863495,3.0695248566348887,7.076073337163768,-9.374384825123958,-18.751012187359063,-12.820758034658516,-10.017389449045426
1.5473832207221339,3.1066552308984376,9.741506344445988,-48.593421772384694,3.336739365700634,9.40768015062522,3.8710307871804375,-40.32844261744508,-13.722330790684792,1.3527071070605792,-14.147303711898205,-7.680949580739602,7.114296257965703,3.11866979766684,-7.59890150099473,-26.347056868559655,-10.237194175972693,-13.045712821938663
0.002553108065030507,-1.0726415925004287,2.7646571398844957,-45.5187787486674,-0.0862063762192129,9.635559997041037,3.038240400681417,-41.94032058564852,-15.379886244980492,-1.0802390344945758,-16.030089604212968,-11.333995209474562,4.324676179050625,0.9192259828704943,-6.410162116795453,-28.186466609253458,-12.243276108033225,-11.38732744201132
-2.5173762633713936,-6.814576123980768,-1.4787439806531193,-41.1813523970864,-3.604329458035357,9.473923855584065,3.3735051443571606,-42.67701287133975,-16.549949987044318,-2.7286933845649357,-17.91649815715465,-14.796907236272535,4.8571398925620155,-0.987149158544077,-8.542536751944555,-28.76136731148913,-14.639729352043759,-9.534414044854286
-1.910742514240023,-7.478452111843266,2.1872508187388906,-29.91694316041654,-8.682439322284537,8.043884655974459,10.736328761831956,-32.77264653034467,-15.767599858236967,3.145732752859513,-15.509558875992504,-8.987460986336238,3.242923763342527,0.32925170177463503,-3.8395727669731237,-22.407475132947965,-9.809257689852295,-8.8541037001879
-6.771389453592299,-5.5057431159030905,4.973533866731041,-24.518659314551073,-7.800833724614016,11.009622843652021,12.528904453537635,-31.368035421005537,-16.157825969908036,11.074209144724739,-17.500777870859658,-9.237863321218256,7.7830049716756715,1.743356055537932,-3.727177154284142,-21.42952572133968,-6.15043355584611,-4.7564034199620515
-9.970264689206221,-7.439547745328402,-0.34647732566738054,-23.912205151313238,-4.084504509846313,4.796742962775249,9.825511300240564,-33.091896479593935,-12.740024532156008,9.142493257262773,-21.155702849659292,-16.915260786909055,10.860148453620758,0.03243368495481658,-4.982595029769623,-28.464133835209815,-5.323444691388993,-7.592952622312373
-11.702646291937496,-9.178270883930841,-12.112509546828242,-22.140393247080517,-5.736646433490355,-1.121924882072932,6.727820507597908,-32.67060037449203,-11.76423045155044,6.530412936141739,-25.986006768899255,-23.91399568541606,10.52126741548852,-7.147325957144792,-4.383070737937805,-31.792221902841785,-8.011900921962884,-9.648707040671551
-12.945074199404385,-8.964103116394213,-20.16806483709807,-17.640629957773335,-9.72981456939073,-0.10562617948729791,3.7241689985470288,-35.377549847567195,-10.691280656129425,-2.426182002188577,-23.30010967433825,-23.300299777961275,6.278140453264646,-8.077018849883313,-4.272339125134911,-35.41760407612202,-8.161027599654222,-9.361058355882715
-15.45535021096995,-6.504101056428974,-20.31376602221951,-23.206005100035803,-10.204489973905224,-0.8458727647923912,-1.8221519622085331,-33.40000675428565,-7.665614945258451,-5.715392340299766,-20.031667334970198,-32.066547769073956,3.209036585739038,-9.00676519166711,-3.2831403126235177,-37.19165253661646,-8.016957696752236,-6.632262748896929
-13.178656852986137,-10.099202368087035,-16.35816925135989,-24.187779363627968,-10.578639476893754,-2.756692320438825,-1.5125245228680342,-30.937131440402386,-8.937264299150698,-4.997404079506192,-14.325136253338721,-35.56400320401417,2.5835721503152675,-7.006857664443294,-2.489657412539392,-38.87204483391061,-5.626541181771181,-6.149804146669846
-12.560367327956394,-15.159522928237909,-14.746588288002338,-19.804608586652023,-11.82878688067572,-2.322381500453753,0.06319160722383899,-26.914562905702443,-9.525618392599029,-1.7370893753028254,-13.407140160759939,-37.601239202136256,4.2064965169320905,-6.471919541564391,-0.03634090831409864,-38.7007757466354,-10.364925816984563,0.9732608409991492
-10.084765285839813,-10.942740891157584,-21.72902004833328,-19.13857661108524,-10.634515915160314,-0.6171519368184502,1.1472129861534093,-28.07055615803779,-7.868086679066691,-0.13373877732843475,-13.27366012247451,-40.61961725749631,6.613007519965122,-2.0308001895607903,1.0494720454818065,-43.80669039972162,-7.192824384733385,1.5532276863934413
-10.244069015725357,-1.7458262959139024,-23.73093883964238,-18.087968815984176,-8.265324610568433,2.1637031922600767,-0.8971617598305706,-24.736862841022724,-10.019381281866949,2.6447127479781054,-10.506621152050469,-35.92751328127716,3.45541502558172,1.4335881758224787,3.3069357288518475,-39.93158494938858,-6.8525932376204395,5.062988842198848
-12.256978795735309,-7.198014286375191,-14.404490389076651,-14.406564309372733,-8.432155036799811,10.219487791030314,-6.46050432594509,-22.284523747129636,-6.40897490825709,2.3013134602565533,-8.231014420518978,-35.92737191199167,9.187126541701064,1.0891457184660185,3.025109210347267,-40.259076789327956,0.7145096272070219,1.736863136430074
-13.389040069012141,-5.5216580921363105,-18.164007231614463,-5.555165859830659,-10.451351518351842,11.928950621275803,-4.702744710319688,-15.73285657579408,-6.607256407915967,12.215160803512193,-11.23201031279869,-37.00576533534303,7.499360379240969,5.334412525742113,7.137745302128023,-38.92952039026875,6.7192819496850404,2.512611404030018
-10.124536339107086,-0.525438766885459,-26.513162158334946,1.727941351703592,-11.10015772366931,12.37031275324712,-11.542032202706695,-11.234158963460423,-5.145321795183833,8.557751411614394,-9.7437736304201,-29.103851898586843,6.595426526591155,5.575481679220113,2.6564178081203202,-36.33336215048716,5.204595394786388,-1.1058947948322029
-10.276048963461648,7.790614589156087,-28.807156383230936,8.614751775585468,-6.862844717094378,8.418543816628329,-15.942978383800748,-2.04990461342166,-2.5113884513541294,14.278637592383769,-8.649127961041971,-25.795960161891696,9.307458124509566,3.277193244447762,2.5696593017256184,-31.591494568336067,8.572976111721111,0.6472144347272692
-9.741915019173272,9.563041204904485,-22.21380906501073,12.175637234351328,-4.8683778852530555,8.17925227676004,-15.854705573668213,7.132479202193245,-0.07259271121820099,14.436166593660738,-1.8932278322023386,-22.687391695121907,11.533887582932039,2.541145992520473,6.096260802676035,-25.582646358059577,12.722791382303598,4.061041693408605
-8.522096707001161,11.530196211316227,-13.76436988275011,13.777912352841014,-3.5541844223549193,10.773533216796002,-16.745980809358972,14.848272453812392,-1.7351715201829983,18.99140748140733,0.8558781587169619,-15.090472145489361,15.520899200689806,-0.4413385618926897,9.329965366448977,-19.087885566312977,14.626642725327116,4.838743902526524
-2.90556216371228,9.590425658769014,-11.466664721200896,16.449075354106306,3.329879289728537,10.244277936321026,-13.34321852163562,13.773292311674439,0.7041985111707252,16.225409065146508,3.6998847929528154,-8.962218241262459,16.190345509026216,0.775123479047438,12.759113990254058,-15.720351962199029,16.432990863776872,7.27735979390911
-0.7048929491418869,2.7671233551378993,-4.382916724963944,15.599322528263677,-0.036693152029703524,9.03294208565455,-7.208873845972569,14.259408310650379,5.194778539585066,11.60698044818211,3.513816026355382,-7.036938804781901,9.342997408802583,3.7490613033834563,15.40718112141601,-12.452456435257382,19.70434894061063,3.564368918012356
-1.334105084760384,4.146397761565125,-0.3256340380262799,15.623363841108038,3.2409340101496045,6.846563287266041,6.73532542746965,10.154333095333676,4.705285380885405,14.60889608728694,2.153242432613794,-3.3574014208552505,8.748648663256116,10.238286542555345,21.0828699450294,-13.092649330578151,21.413315060203054,9.520424453320746
1.5545919347556731,1.2280294980020603,0.9006109460762612,15.544734921991036,4.47126779601961,5.052359441337716,12.571238303073535,8.880206179308637,4.313995958869031,12.633279157426006,3.329233445145313,-1.0485412605714224,7.180677553906722,12.332494146807708,22.071269702318265,-10.609369683247735,23.415372972643596,11.473542490635893
1.5158244868825284,4.5590259354805145,-4.61037824242776,10.48066295758209,5.607508043243913,4.724573924163206,16.45137388861125,6.82384322939383,0.9935950218387024,19.44984064556484,-5.458324641659951,-3.0399758881827807,4.541476014295222,15.598146774350106,20.130269745559563,-6.662593448745511,27.56600496182599,4.833909309220912
-0.9620816990684706,1.541510114376918,-0.842618125435389,13.029111577263585,3.817624430510709,7.035106551436165,22.37977174923698,6.133867171134334,-1.2518752097642007,15.722315594131508,-5.5567247777144555,3.8522062605267706,0.8310923156586156,19.546926741761617,18.38496703575749,0.6033838091893315,27.615099313674655,5.2268636756298985
-1.7774647349734094,0.37870381149373666,-1.2727618376216272,20.065149004016654,4.47283588191743,4.757290190221788,29.08695413388441,8.275297143216832,-7.20756901909869,26.35339328233144,-2.532377888565815,0.7801798682909507,-0.044117090546096804,19.784206287936158,21.815954776968333,5.036333374932539,34.01201621641849,11.187640035427407
3.6596257134396373,0.7776055035566407,-1.2131219894320875,22.60437960958552,2.1043512067834977,1.8950965321366038,36.28002125874345,8.756030335240943,-6.131059971422736,31.1278849942016,-1.6587201736331032,2.490383988045963,-1.6974431908542345,15.626351289185104,25.24742031731889,9.859170917306763,32.88933681308985,15.392008555595183
-0.3736702511851484,6.449181110578076,-5.5464689176586495,23.869625644678358,1.1068099769049329,3.5267311253214286,34.68156173269265,11.775502815451176,-5.639576815794872,29.069174769693262,-3.0333261731113037,4.002395805667007,0.363413990888362,17.913340458435837,22.62463040482082,10.189220796278732,34.79407544802191,14.129075846249265
-3.9162271805968705,2.9400569903113083,-4.213937962138575,27.767313711144126,1.6755679151436942,4.085704565175742,37.280129327541594,6.884489446212832,1.4936280876724926,19.395960082476908,-1.0896201418336062,2.777237530445049,5.747865933619399,15.805133690048079,18.83051769153833,9.54237393892307,38.16368477903758,3.9809217264295027
-5.307827877400333,-2.425464338480416,-4.149110543278789,35.27413819018546,5.373188052507102,4.157963806450596,32.06389668376814,5.411440766404553,4.526278005639098,14.12010032853859,-1.7846383888263269,6.529995485714775,6.448018873806953,14.575217489406551,18.552698310022347,7.430554635950948,38.40822554183219,1.5494626652190533
-9.040693140359531,-1.4441605786728768,-7.207364943588168,38.77291213317961,1.9456457790576391,5.69666290542791,30.947183060605134,2.375964149780838,2.57952769491944,9.43289898167006,-0.43072234136160503,9.498989135370643,8.030403394610156,10.414908016592582,16.029409115744322,6.490735367982165,37.09019406221927,-5.470076092533862
-12.28271365431087,1.8799731740797885,-12.119031164371755,39.43564483165934,-3.5288194272965656,7.041618282691022,24.65257833993773,7.934615943830842,1.3176001615221633,10.998458310105597,-0.15283150714794402,4.7506462226154476,5.807485811918273,9.867241376893418,12.13961217276913,8.28565377764112,36.162715535165006,-11.511103063136755
-13.471331152777724,2.6640222950133867,-11.46200103661759,39.60623791907737,-4.507103129836237,5.5560677177535975,22.94593191866775,7.634201048719593,6.893006696233462,7.390774082821212,-2.708715977504326,5.761863223183081,8.959129969866463,9.318848197513482,9.910738672627637,3.4403807153571293,38.360174940749744,-17.061806921428456
-10.555699127779176,1.298590266577281,-14.611297210535842,33.52299989826551,-6.458004101358862,7.490102115162481,17.42875367739849,9.385145740747898,7.684549393498088,3.199709503266444,-3.8013449771517056,2.5716799069520775,6.645361395372875,10.820507538517871,8.366251274192022,2.0138772239282403,34.30739530940592,-19.97361769294894
-4.902992470040794,-1.6304038010381812,-14.828414787906413,33.00263164693384,-8.307253727378885,7.374882348612999,16.695000397657967,12.406336126290626,10.333027188370911,0.08539365112092767,-2.3563922541586297,3.5787920026515003,3.0654959922746174,8.31740554399082,9.557001365104473,7.229062243874662,28.78956979089458,-12.433816876510729
-11.259497000247922,1.982605348540964,-5.667821727187569,24.763793834092304,-14.25410259349289,10.483919507742467,7.463295158704914,17.283865195983488,4.389133853191698,0.3915578976041978,-1.4011558184009445,6.439544522838201,-2.7570121816386823,6.790052522142895,9.772032423060484,7.171904505435858,31.670091800838474,-15.536377523424324
-10.777236501558711,0.8092928477949239,-0.21553371538714572,19.939581035081282,-10.724093844665454,10.567110162916645,3.1128241626087307,14.447419310465289,3.6226820048085404,1.4813870084666565,-1.1308584694694819,5.782893122159109,-0.37275510408334167,8.48454160067269,5.593359880290805,3.6981134145081995,29.276837146886614,-15.804433220815062
-7.557804301323241,6.666218414255941,-2.280080893957331,19.897312554267554,-6.604052156470152,13.28859401682619,-4.071298214562292,15.323097129547143,8.22905760090029,3.0618496858682978,-1.9360378192545973,7.3707763057624796,0.6478368745492178,10.764078460558792,3.4664296349959605,3.057995805300518,26.687965502638633,-14.11680597819482
-8.827842066237096,8.811003974223434,-1.4119631801190176,18.19168710481522,-7.753413595138936,5.952854481813061,-1.1981744024867678,21.864194516927746,7.270663374897758,3.3750467346999358,-4.304888630503351,10.422064353620765,0.011817060521984502,3.7651955913862576,3.293617687576743,11.794830661694043,26.73550627820257,-20.629803820582367
-9.216143685376752,0.7005544701634322,2.095968188387074,21.95182778097938,-6.9454784217276435,1.7436749853897346,2.7477593847426163,26.64886211185457,5.2398240865017325,-3.340890148941739,1.2354843383931122,12.397788478231586,0.16065381507418852,5.3592232814987,5.660902891840042,13.014038071910466,20.92318879401139,-9.952318148488633
-5.499974078534702,4.3078351656492995,-0.9359923536313577,30.201263633651372,-1.5434620975832942,3.2978019231045694,3.0790074876650455,32.31399545224009,11.51175052082804,-1.4607859091731594,1.0130923468186133,17.009075408691636,8.028069864556443,5.194404540533289,7.345610890608279,16.5792574697926,25.169175184331458,-6.205715485999523
-5.394265857937784,1.4684803392070784,-5.722493576064222,30.92819735717042,5.229954052010054,2.802602424846307,-3.6223751610302903,32.902606448399034,12.316768004251628,-2.996607647343863,-1.1633175101533855,13.123075415650565,13.457681717614811,0.9269167144268611,4.246146302887931,18.682043029359654,21.504389552616594,-9.87819020709193
-1.477002762065009,-2.3487023926676893,-1.032773514074937,28.8203033849248,5.659831156938075,-2.281039455682931,-1.242785648582493,37.39933860253485,10.487016578407232,-3.358508306583543,3.6908623607554762,13.142454083566353,9.711125082966234,-4.318229733624836,6.225969209109111,27.916480096820948,13.249141173436659,-2.317020674950019
1.271297572944901,3.305639570883814,-1.9060024848155832,28.858227448093857,9.218991070017768,0.547051300615994,4.9443337817340876,34.671338151557855,10.612474438683913,4.5824587803552825,1.8059862913865263,14.528242596708498,13.292576107695403,-0.6776405760922595,6.644380213174962,30.122398559211227,17.3958207899857,-0.6122192948926619
-1.2509637809953236,5.345343707784158,-3.2638565921720994,28.991255973644556,11.21988173998662,6.013340019612739,7.517070520064498,32.6290077226987,11.716627365770393,1.2946756213214492,5.194052121453899,11.616424199741623,14.045646158560363,3.547738468978389,9.89600314827495,29.88991222661204,14.217506735134581,3.439554976135055
-0.7428537611944086,2.2078610964078917,1.925142536172328,31.95390255597483,8.537473332751752,7.867713666099749,6.573157846051769,31.37012766280327,10.576831834757654,8.262773512600425,5.456590033598621,11.04785704642882,8.845302164677292,6.0140835776974875,8.461216132294465,31.027870633099944,11.81973119973621,7.103974941006577
-1.7942620640081102,-0.7356573569390494,0.7702938859684672,32.17977069958532,6.152326781379506,6.598442343512062,4.456456944416031,31.09013286455053,4.947020386491326,7.127024235883145,6.207032200913757,12.139068341342064,7.16435780284944,3.2056778157153616,6.344009190768891,31.58331412458645,9.811800940890667,5.498241677828051
-5.577058595674757,-2.7039742398184115,-5.751704927486,33.2822892317807,1.6230130666456317,7.2837090405876594,2.631909204754895,27.296883381846744,9.573570959392013,0.32879671725316406,0.12114377666427956,9.226040015514545,6.463722982497602,2.739786421743763,2.4701684246373663,27.1618368650175,3.603737891002039,0.7709120165097021
-7.110676802776283,-2.9158518321658624,-8.460906659517338,37.117045341781235,-0.3628835379326252,9.142231467592941,1.1972475063109136,28.2913998037807,10.491484455580311,-2.9521575189762608,-0.49610451889203144,11.586387629630988,0.786284979934166,2.6632159249374405,5.335937024067491,29.482557310873357,3.74251175074685,3.2737913249009587
-7.274015764305064,-3.61744203565502,-5.892326151237041,36.75042723250991,-1.1725604193085872,10.025518135367419,-0.9216883153203641,28.31198461213071,6.82189747330305,-6.133936863035336,4.94132894111047,14.337353729954653,1.7533225719015029,4.2454781307107625,0.683303276820947,29.561150033495686,4.661563192019075,0.7997452704369721
-9.875708043525478,-0.023539124837286818,-1.463865938927246,32.8661244131507,0.170568993166623,8.371023192478495,-4.0177966783854675,28.237662992838793,12.236948363895566,-6.6775189583328025,3.835690512795498,12.107891387521315,2.040511228445105,4.752117378815354,-1.2336532092281907,27.202483102125054,5.3842448160927265,0.8685012063289497
-8.958613527366634,-4.634357027706324,-1.9137924864203337,34.253416356758116,0.5414643448695595,6.717825106466418,-16.977857321132607,33.04908150065399,12.283344747968208,-4.290010838614226,3.9996938145083263,6.753625591420201,-1.08656150812633,3.108859500481105,-1.6844676213658687,22.992683259926494,2.9807526140847234,2.0152724772715067
-7.061816891528503,-5.34035879268666,0.08234148395075236,32.31850228863326,-1.8177082300603598,6.237793254227889,-19.391328141317217,36.20326955146801,8.914292977718318,-1.608253075403244,6.6053256341862845,6.087302551883928,-0.596535789988538,2.2453976116446706,-2.524623050234232,22.107787662953612,3.3104774329615516,-0.056804044935498954
-7.6033239306332945,1.5694272572769439,0.13005351833648193,29.698219019149796,-1.2427962539166026,5.173064119741855,-13.894893925614477,35.25887776569496,9.942462163206754,-7.323867430022176,10.578444162323226,10.597336968637284,-4.595003193133326,3.6265586958934435,1.6170687174647345,24.6456274857372,-0.46269780336198707,5.199382910909934
-2.672844103669121,10.528487875706453,-2.844776663961496,22.388674477730824,2.1685441419331846,5.281452184750076,-16.50435009357362,32.16915111692112,9.703751588473253,6.0048869178337085,4.98147518899648,6.709427890517059,-5.464660827487515,3.4436517705233607,1.9514221045117477,23.184384302538625,2.501159141565628,6.260293150422768
-1.5478507189556465,13.040578013578488,-3.9591482636651625,19.472111207096106,0.896666600677837,6.758247484425512,-15.012405419548424,27.813095419766775,5.561448760852535,9.080602528774188,10.224978371753224,2.1386605766863473,-5.646954727984193,2.966188373422207,-0.2520027066008934,23.388373146539184,3.998719577472942,10.840959000417795
-1.9822053990139925,9.496307388666043,6.162194419236071,15.089134935707012,1.582295076709773,0.22828096012438337,-11.37214127754193,27.561968460790837,0.34767288233728344,8.348603645771023,14.492458336174366,5.576696480323594,-7.290359395037569,3.268364628427138,-0.5985993277005797,22.620997314447813,3.834587959220068,15.621085774907577
0.8093297600997715,2.23944094976489,7.890157040454293,16.759459215525368,3.6394787113150153,0.6331603328378499,-9.294478671482173,25.55638378606029,-1.2499615659827628,13.476918759148152,10.947963601628754,4.5234661710598765,-6.293255642351577,1.4204094134667256,2.9624513832608406,22.444939004407836,3.278233351406495,15.717852479244542
-1.2788308202154797,-3.358865965728116,1.8107961640541093,21.455759089875386,4.9197407271397635,-1.2069689595322046,-5.1660084332327205,21.796415181786585,3.7959765017738953,0.05102390624479636,6.32996764852452,8.451890411450897,-2.6556510491913556,-1.3081654335642732,3.595112729024498,20.711882269944468,-0.0142130042713422,12.596188674375183
7.476214023778699,0.9046169055455681,2.670539297121646,15.798986579543033,4.348837378848916,0.17669911959792373,0.13442218716741672,21.457992455603954,2.6923624274044484,13.188704993319574,0.54090116666518,10.428388218606415,-5.752697926746132,6.703872548681053,6.768221779517624,18.398554739816646,6.555012992647594,19.635265580661596
8.71481222852313,3.408599059130744,0.1177732781342059,17.46525251134841,7.1026181481159885,1.8544045795281558,0.6497630453905754,23.7599190284694,2.7635641513179676,16.365876097061612,3.54194103871405,7.0350557900479584,-2.8889009934839294,10.514850707695356,8.575471057914104,17.165284029428626,12.341131963067651,18.084855194391796
9.76129540134954,7.3757669907578896,-1.0621668608640595,15.028658606228802,10.544311132220917,1.0917025813271675,4.290362653399722,25.284235072245274,4.4979059062392945,11.828573094210451,6.641634680261209,8.135440456764693,-1.1932878958185196,10.808335052941171,9.602807638178689,21.992756643940808,10.019726422959735,16.53889395493527
15.791522815270334,9.192765904547537,4.794971970890557,8.879890614848062,15.455163129874041,-0.06062272872701158,7.931244407344441,22.417660991046006,5.746951015815775,21.159063414695176,6.226730835430777,5.526406039616556,1.28728187104356,9.635100232640529,13.365909302059237,21.455154393842232,11.602610224392977,16.462300402003194
16.94205964685054,7.492369565764647,6.360994403168241,11.421533818792755,17.34290074045126,-0.3330493599807447,5.810672203123018,24.926023283512443,9.342805598864581,19.84516019232106,7.375515904813837,5.653475738576762,0.6464827193085689,8.459974769880937,11.466208039016411,27.173881338947105,14.159961827045034,16.68323115210855
18.584076357937054,9.305917950749532,5.686813714024517,10.934709203154835,16.50047757228407,-3.3389425160078954,10.721880011008553,24.996750906971908,11.574505207446858,19.80101272930056,6.474736144707646,6.661263144409157,2.6461036478561066,6.01337082054179,11.423345989039525,28.7973455168652,15.836193743614064,18.568941059749783
22.573062530791585,12.289608564524702,3.2608175153790087,9.860907617563509,17.029496818300956,-3.6094977075318724,12.996820983160887,24.485384769620765,18.20388418556677,14.385798849178656,5.184654452296586,10.210058741213256,12.169012304501779,5.615614726716638,6.3036182651514245,26.81395956722579,19.853919950851164,10.693517953117102
24.51441008969191,9.02143703168894,4.454278530043116,9.37206686323959,15.902544340971968,-3.5861874896197428,15.369980650792346,22.4153869914988,15.1682536054938,17.6621364878638,3.4076930224000277,11.124109398900554,13.882922436271095,1.50486344203905,6.947027207353598,27.766911408023404,17.423851433687606,13.07683885810139
24.994053366629533,5.556167749651726,8.19305666456873,8.979940763723816,21.127528322272696,-5.612826723849462,11.298358583162864,23.864995261205134,18.874137419964477,10.000722495472965,4.952582223594781,13.895776405534374,19.99502881628075,-2.1196360950842053,6.615180462645457,26.18748225899188,16.06554089743988,13.609381112385588
26.25810589107226,3.944598432720877,6.0786792780331105,5.461864056823025,20.497202407122394,-9.201155808730412,6.348513450435716,27.760005327893307,21.411280228259926,4.096965032988079,2.59272630618236,13.642276091209876,14.880068586144157,-0.863320928273775,7.358880834614767,24.02893688427737,13.33745074615981,8.28721125019892
17.66185706890858,9.264917432903154,10.513770273254835,5.94688960868746,14.988112822656344,-10.15192097377281,6.770607402565606,31.85431576299065,15.846001959844868,1.0250005755776375,9.31668019683078,17.19975165148991,11.331179580087463,-2.3435295530412708,9.17811714171595,25.295347845718045,4.747230113278569,14.29812213126434
15.025841423290416,7.845027721286711,3.8223674170869053,9.165502344385537,11.72924108407341,-14.715246556323695,7.1935307892885465,35.46434470428769,10.674543406531846,2.5425692380905165,3.9327881924177346,18.708838068996833,7.590494671344123,-10.173632486582324,9.338460051562997,32.91654778504038,-2.2832282159152975,11.329331070325562
16.689855501956092,-1.4869762337654553,-0.22570143790783703,10.820794994369596,9.15802749328243,-18.008274389467005,7.519691183522384,31.16812197046561,10.29151819019292,-1.9951223342514215,0.9921258517184359,16.50945111697805,10.884657156252143,-18.49419877307559,6.3750294435768895,31.072078431087984,-9.41420184918454,9.927897889893991
18.35693435246869,-3.398841085823193,6.865871289954788,7.592435480612535,10.39948154106463,-16.61301224099614,8.432757315981405,33.6143224351258,9.22810609345839,0.7909361758771052,4.791704343391423,14.605653424469747,7.443894544889531,-14.316781701282405,10.737188102884833,31.969248104720485,-9.80974547635022,16.83222712906879
11.433169917813805,5.625100785425576,7.518774198628407,3.093789107323314,7.445628010487761,-12.775616603485549,11.983605498617973,30.20510729683046,6.31242538152547,5.822441867717231,2.636086330759108,12.899880429171429,10.549626724875477,-19.51674702067049,11.194279133184407,34.631565365096755,-13.235729999292282,16.124124157483962
6.465568651243,0.48680000682137914,-0.12241038057806541,7.481287644455925,2.3472365952447554,-13.332157520247057,13.875358138029537,23.967872047340535,-1.1899316022521766,-1.256393734121783,1.7520116994321064,15.00555955886454,1.5491909350034234,-18.76186067838696,10.090070169443397,33.980908834342145,-16.078916225081397,14.151355602750815
9.508878387417315,-1.723648150889388,-8.537959553449614,12.258732417588138,1.3543575014349702,-15.743561716333367,14.108077397049648,24.180103472421806,-5.173365433096304,-5.89466821470992,4.678646998131496,17.895389750319975,-3.053290740038955,-22.696846652152928,13.381663908418426,36.26745013837945,-20.78084507163454,15.796818463394589
8.84413567094158,-1.7875139215550928,-12.454281000166837,18.402723515171864,3.880996823416865,-14.638681161901275,18.248315805501182,21.759629197329833,-1.5362460992975322,-10.436268323075279,4.091725167802732,20.885853518938774,-1.3047010796587237,-21.848933571760053,15.3072329338579,37.09666238193907,-21.286834207979112,16.665920867737377
13.358157620529262,-0.7790397816092303,-12.261933941150652,20.249132714807473,6.997372602698229,-14.11916830689044,20.339011727771837,12.995448606742201,-3.267050174050663,-6.678044922657309,6.2414031321160035,24.27000857714446,-0.7247252187974258,-18.65959345596619,13.425311727439954,32.17167157767574,-16.913377078493813,17.051638887127876
17.093782250255273,-5.045985160250635,-12.550763097319667,19.458160375032065,9.922170887603638,-11.450633458173545,12.469947891641915,10.583057551671367,-3.0414463359107042,-11.026599371821757,7.905035082715307,25.11820499270837,1.8116438420500582,-16.937505753371077,9.005427661669986,27.644977122423352,-19.281842381343026,18.028206907218227
17.12123490898132,-2.967084249828881,-22.109898754652466,23.744784869008928,14.120203487711764,-9.465177760645084,5.67650777683215,7.002795872842718,-4.0821412469264065,-6.8802167740745475,4.199791649406809,22.55160314507588,4.741840056250004,-17.659274496788917,5.953865893565096,24.297897923743015,-16.47808337030463,17.44715026269865
18.42101528418631,-6.651901009090086,-12.813848233078444,24.026851451694746,19.298440644037406,-15.389500301925777,8.259657306455702,4.59843144219376,-2.7758018028396805,-12.793968528989318,14.266645517036014,24.285242308477084,7.4798732803404615,-13.402937099876928,1.1455531287173066,21.544539781606627,-11.138956445804048,16.67566929103633
20.114156042665304,-8.287819285805888,-6.24491146019186,17.17932577641845,22.624749126113134,-13.598388602699139,6.352054564459758,0.6355260027362135,-2.9310851889751497,-6.209017219731656,13.202926510575153,18.697926971188064,11.19759121688312,-7.586539152878292,-3.759355782116124,16.162244808746408,-7.268526176837782,18.74114225779625
23.470157525980042,-5.140424258030523,-16.07511436315103,19.51106210300561,25.075645362375955,-12.685749355401866,4.5436697005461655,-2.151528813744143,0.6278614667640667,-4.117909905730963,6.672835024938897,18.582894421801395,14.137107910597917,-12.222006391232636,-0.752953959827364,13.619889334262151,-2.620761514074183,15.635619130363784
27.51238945241337,-7.268463872048337,-12.909422495520714,19.107826183655423,22.74475659319102,-10.50313744908702,-0.19283167815775748,1.315440912508862,2.4321953290610416,-6.716062002437545,9.715712380801705,21.01048356104279,12.489723434107594,-9.92628377626998,-6.827717040184986,17.628505760825288,-2.566934835996374,14.878726891280923
30.18998381143402,-6.859318407169486,-3.583826109538932,9.817188909289658,21.882112882301904,-4.316160941270275,0.3458553496988799,-0.29189463343116984,2.5795627209643683,-1.991671009340477,10.417361461215474,18.558775031143114,10.845302109559674,-4.801018104735754,-6.06546323039046,17.641091882887572,-1.1500203100514006,20.27909473018874
31.405224826010503,-9.77245051045045,-2.7469378577172976,7.557368994753542,26.003325453587642,-0.27728185134335614,-3.4106737907435996,-3.555549812814654,7.905992008309944,-5.472416689262996,10.242693359415648,13.76693677409989,12.328840783980198,-0.3619087367572362,-3.739741305590714,10.532629257074387,2.508805814951753,19.434163309025877
33.30652219689806,-10.05073499185933,0.7342697307960486,2.269624915922442,26.221470457515224,2.980684180893652,-0.7200145052710738,-7.694301193975974,7.08316986751526,-3.2909985112561366,13.684006896676502,8.7835035987868,9.81127224882996,3.098051386808736,0.5400479687576567,7.33846733478498,7.3352129437362406,21.62138794264784
33.55002706335257,-5.057408518899571,5.199656809875805,-4.581172789028727,24.977919870288726,7.313210602306562,4.609233750917998,-13.196479106810173,7.044778361453912,0.3532026971371498,14.881878198109794,6.831243308563485,8.956691947400822,6.164789978899124,1.2073807988454845,7.375022391576117,12.54784420823488,24.985237922971304
32.038016109859015,-6.804367447657057,11.625839072359184,-8.307449342007548,21.979626964642026,10.474146156812425,5.155134379719159,-10.101038743472976,5.251696745351085,1.3584644701450683,16.08247355624824,5.859403620772568,7.8118903228364704,10.986759584879266,3.633399444370217,5.075819405632096,17.755974258957515,26.79125924879171
27.891501666032497,-0.3499705003283853,11.711943367442338,-8.12794066534381,20.839852695521653,9.826709008255898,9.023330718452243,-10.419929803467973,6.293817297160499,4.41226163005288,13.574834831232812,6.844620109319017,4.521314328345757,11.997452267657057,5.376626149564692,7.374569873210763,19.346172932752456,25.281571708515134
29.508978992194404,-0.34287028374895456,9.26665270661891,-12.050580299577355,19.898338188554913,10.058448210383329,2.1511583580382947,-13.27428318521082,5.190571762022365,1.8971944710405204,19.27324000481945,0.02117487756655123,1.0380615936241693,6.755408762789839,6.241710415519208,4.798480799848043,14.095641693478827,23.581178511060987
25.17144655566644,-4.439271222289275,11.516667308746756,-14.508876823947993,13.686170908584362,8.92321364746507,0.3592206498575248,-14.26955396288357,3.6021162248494623,-0.8156564907358164,16.771220104533004,-1.8177140205094204,-1.4660333190435395,6.100623454522498,2.126991410172577,1.9374696973865113,11.770062168789668,16.123540437364298
19.566400907238037,-3.9476232127544906,13.188492877100469,-11.694178972506492,10.992466656297884,10.32729321589967,0.13188768970540998,-14.968322105985159,2.4073428705257527,2.7190252404903803,13.68610790822045,-1.6993844201982142,-0.940217288847494,4.6619068574566604,6.020912137869605,-3.2592762505471384,17.838176207963688,17.55726695756627
18.26025606959372,-3.653142852855493,13.012598604918969,-6.0479315972423,9.180383986572657,7.4346237853141055,1.3715497848388676,-11.269021331650038,-6.8900011365419225,14.649616487482206,14.80315939957053,-0.9909945261354167,-5.392485488048859,1.9509574918853474,9.915500825957183,0.24356339529494164,14.721499841034817,19.386079650244824
11.291843269819902,-6.583205960481466,16.848464784471545,-3.9178898240319384,-1.515935147348241,5.128071437684879,3.199334643082895,-8.933519718505185,-5.344345607680744,7.827172980078363,18.16924415980085,-3.012859262460207,-8.670461783703448,-3.2041292974657543,10.978645323885335,-1.226103027789513,5.447333189869695,17.996583667428133
10.087036792256505,-7.659594446462213,15.223302502529052,-1.4954043941374593,-1.8580014620472447,5.067797235183207,2.7832145064940734,-9.91503602186928,-4.186363999483298,5.103514404697864,17.143657911242933,-1.9054678623116175,-10.969524123576015,0.6225913249494059,8.526703202219155,-2.101796145820238,6.129114549548448,19.541154790724118
10.544128290061613,-9.323734719643626,16.53568521804829,0.6335751320297227,-1.9046491249813258,7.253781073133023,2.6623366774412958,-10.014353847621052,-6.05285056692354,11.361437326123417,17.683542526053092,-4.60247536479714,-10.824869802657705,-0.1433162600909741,9.200362025134629,-0.2350611844031434,7.879901808924585,21.28531111801662
9.342669475412597,-9.915426594572814,22.250482700698548,-1.8278953681302994,-5.07398730104677,8.365640109797315,3.6180085046448784,-9.329199786553449,-2.1546458885746915,9.510747902101484,15.491974841480246,-2.9982466416392697,-9.896744689584747,-5.990149464544822,9.483903912746689,3.983451768235053,4.156539766241318,18.053123969985464
3.0645525477199733,-7.0908641822216225,24.164444244371296,3.132082224587448,-5.2136678662758875,8.110381888918448,2.427569376757427,-3.465046743504164,-1.9645898591204798,10.586682636741871,13.49870215621522,1.1494199005801953,-8.86881810251678,-4.906013926274398,6.1545837852063805,9.479484899490192,1.9903003233930927,17.36416767321999
3.9169064475331226,-12.178323678134333,25.500270478593784,10.04467025854662,-2.4214392287945437,9.808350795580344,2.5090844149128326,-1.1135071059448336,-0.01389003335460437,7.75311283926156,14.145180774532626,5.399119926059358,0.16912095779720815,-4.508220007525097,3.41164444402533,9.709943481465299,0.20920651452256767,15.995661992711005
0.47368541393285213,-14.826061421895814,28.30876483663171,9.730036746510255,-4.705327830465912,7.990695075311504,-1.0202897504812363,2.7058881088950013,1.6465981500145794,4.525631590340119,12.646191955231869,4.868003879552276,-0.06841424585907863,-6.261639391842242,3.7941467920801673,7.506872448888842,-0.21024695876085175,14.533475482412006
4.746699825838764,-9.858192427223152,26.73044943708718,1.4069152193654215,-0.8347863084565859,9.395780982524544,-3.5705962559229008,3.5984626351436795,4.872326972409351,5.201095276706608,10.661925552754477,2.2905242531577628,1.3561757015911633,2.138598652189602,1.2472703380530046,3.8468163614627073,-0.8306651730113601,16.883836858206607
8.434948714982465,-13.681190719638934,27.015401769121013,-2.2291927088119827,-1.3569442745307683,10.0196238683887,-9.243417651872951,5.275130496780104,5.9522556497506605,-1.1582457217973774,12.684643656670605,2.0613134709888783,3.3685874624675995,1.942204551688044,-0.7133470824499657,0.09694750706657373,-1.2614968553282573,15.624674054311752
6.069504274762444,-13.79483768167687,33.06990911451659,4.290541828922148,-4.904687888776213,4.100400296052927,-4.171312826342151,15.35311323567014,10.452826841873078,4.490786723122782,9.632180275733353,5.059323695755603,4.50388605495778,1.2547683356653963,0.256039333761402,4.362819092226744,6.212141405516423,9.681665269091646
0.28702992468519994,-8.441264548972304,40.304030887624705,8.075292656477872,-0.8334187655234633,2.6734186913639095,-3.8818209545410056,20.550873971309443,15.248942476265666,4.3744043051165855,9.121840810897975,11.479901327496087,9.449573474881191,0.27160414928834253,-0.9228139551553607,9.710689273600792,4.597726474790088,10.090045717250604
3.001673290144325,-11.097208459067826,36.11988731127649,11.175868022596848,-2.522343283383403,5.250374728579281,-2.90606757066414,24.774636111879317,12.039642403940855,6.402806044584984,10.567678352324545,10.190093364060722,10.392960362387148,3.582625515247239,-2.101477758884892,12.72249186766712,6.688347750841971,11.869178556871647
4.349904937413907,-10.23902351921405,27.255826638074225,13.689921638264973,-2.451912044601226,5.581158025819079,-7.494107498961309,29.879808606859243,13.422721029578192,8.036814510584101,8.696172359071774,4.900921795266765,9.970734969045012,4.254133695305424,-4.9401747343707,16.230253159141107,4.768971075883294,15.995546510361754
6.870727522184506,-10.45658941225033,22.30568965552439,5.754018068372121,-3.454296643248961,2.7868345491776916,-12.567698166547409,32.545938326855705,20.374699861032155,2.928602224574189,5.753446213301961,-4.582902465115261,15.018867825154803,-3.085045126520742,-5.727951756777326,13.104907124384884,5.480252048913652,10.847781330308425
5.1928659413716325,-14.191314000368527,26.44529171577662,0.6496067239047107,-3.967070828546717,-0.20287720025910216,-12.267335525177419,33.65185318659695,24.985244251996996,-6.285144305883213,4.083279008583673,-4.686928574049997,14.892593467286456,-1.9307498900671898,-6.320346759637287,10.57307281503591,1.693106950262966,10.68381350908719
1.171717156269498,-10.603150961364904,28.639258781106527,0.32983968005164677,-3.01375517683233,1.2995813007710408,-16.163438902780666,34.85764131599954,21.88311902054342,-7.983224510642062,11.205308077740646,-5.567537931615476,11.544994441950612,-3.0253279435784757,-6.033796248827962,14.494158287617207,0.04819554638166501,14.331648297788265
2.326826453013254,-13.364145236945143,25.860146987855064,2.939217755417994,-4.207784362838144,0.9464446702305865,-10.486228159130212,32.54987125436937,16.439438647237296,-6.657962895925107,11.591942134915685,-3.6113719269221463,3.608789706662664,-2.5601222590766026,1.381754695097281,16.371881259951707,2.0103195894013295,12.806669537434276
0.9431311564649754,-17.4937119085476,26.89709452706888,3.88782574282304,-5.791417591878732,-1.848245044279662,-1.192787080567519,23.701056448742502,15.685497473260504,-15.493220717729171,13.739392066340251,0.3026706959031529,3.779412421062794,-7.468826123548066,4.207337095708485,14.350683338796497,-3.748880826649219,12.163550954552667
-0.24505360902607265,-20.2573926070705,24.328050245695813,4.054582670699665,-6.104571974821663,-1.9086383343070437,-4.396604842476535,18.565161569039006,15.324290297433162,-19.938058835497053,14.424938085401022,-1.9309828470718493,6.97858671023247,-6.716107534004739,0.39209859154738247,5.5007686496614525,-3.4597240046875433,7.909928350611647
-2.9956690562455144,-17.358203670622665,19.32483966869811,3.7324620047664716,-6.2215814400096985,0.7652549051199192,-7.792768652534544,12.84514667204211,16.722959199866683,-27.121554150122797,9.156307975886605,3.945715920933253,6.077223877186568,-4.110609880939112,0.6783511719846445,-3.0489136836118185,-5.032544083896966,5.807498360084143
-3.9884540967450484,-19.440794254762984,21.360191811036007,-3.914576850298168,-3.505785813408405,-1.5415358370390715,-8.744482404372658,4.099467653625389,16.95170409092666,-34.21169172998551,6.917995904071008,4.358358344185959,7.22768765604775,-4.828183807116545,-3.625483016954382,-8.466357233169362,-10.615865973977964,3.7076788954627418
-5.4696389113876585,-17.813579574474254,22.4260958185834,-11.366885628720336,-5.8675608094126375,-6.778206172117862,-4.029003963726341,1.4101926354154557,16.59640196899168,-29.58725762815156,4.682592296180989,-3.9157449330506715,6.035305670803448,-6.232059633712662,-0.8981713842190029,-14.169652962711204,-9.662705719455152,1.5126987541195405
-10.759688799913295,-18.33597676711173,22.327155706503238,-16.8666215805864,-10.670246092594354,-4.983673843834428,-5.169910372332916,-1.8635074183741942,14.094458042612786,-33.07282776080777,2.8407068361907335,-7.4974685591337185,0.05856022707462838,-4.51357369012307,-3.2493116445595023,-14.9830126195262,-13.013121723681854,0.9802822520445851
-15.757080685793987,-18.46883599858195,17.059319329840847,-17.191074610885824,-9.613032217641955,-4.5565107956723185,-8.065540668275197,-7.47957541466117,8.176249287748528,-29.62916230068657,0.5133969965966259,-13.418155949108385,1.4069368453000068,-7.58299001380151,-1.9874022637203748,-21.551203664027177,-11.3896751072375,-1.8936543921230111
-14.504794202648739,-22.704363448126713,19.51331934474591,-23.57087883364732,-9.336743733160318,-8.42645454793916,-11.934597477817066,-7.332523267069842,8.314502699702626,-33.41668316268071,-2.592334840445826,-13.572201836280932,0.3145872451783207,-8.70191051547457,-1.5070782355798693,-27.135917520108812,-15.632418564821146,-0.7614758188734392
-15.792127418615557,-20.495472083891666,18.165449186035495,-23.701151572673773,-8.181296964959177,-8.878547942500314,-16.484072557753933,-9.430390656017597,10.114544838054286,-34.76732106986105,-1.3983120572438033,-15.77221360012205,-0.48414606865911836,-4.061668208163631,-7.472524474802926,-30.95596936960402,-14.12012158696616,-9.100069115326075
-17.861342044035936,-18.189862739561885,19.070391387482132,-30.08207464910864,-5.170212047163957,-10.307392568585598,-24.643663527640342,-10.745893154432558,11.232513531565083,-38.9546383570211,-0.885106683296577,-18.45565653649806,3.112287874581252,-6.74838405251514,-18.711883335398117,-28.519181784489284,-17.69283084900109,-16.460176117932107
-14.560100967114348,-19.40081840210521,20.76317843084204,-35.58462254191755,-5.967735010937215,-14.95911867762132,-20.299809129238167,-13.329949236651686,14.695721107304912,-33.96677470054985,-5.935634361831127,-23.575675525244577,1.826329808107892,-7.679870908201409,-20.869501452886382,-27.833569501467515,-22.248955666068284,-17.177768899195144
-11.65031076745467,-18.561793422659893,12.110722531626365,-41.283018256773595,-5.984048682386353,-18.24381363371647,-28.062226206300462,-13.374013270905078,14.156335696347764,-37.284504628268536,-11.76469575758632,-24.49153522577957,2.689263287194818,-13.985125416880274,-22.24632032855834,-32.12191933506378,-32.57375651872379,-16.038198583568494
-6.299996200635171,-19.38372646709354,5.613105099301286,-39.657601958102795,-2.7778056235631974,-17.03642980516335,-29.180595464335497,-15.565763210168079,11.665090008274186,-35.52875410479782,-12.219884410778487,-23.644671019252296,0.8181278468408433,-12.870964160804842,-26.162735826788897,-26.345021962476558,-34.995177749995776,-14.01816517789575
-6.224217182190364,-14.151599675033063,8.496885732636265,-41.841340411364854,-6.798479492362185,-18.563638899880136,-26.877589647978574,-14.436472118813565,12.397763435726182,-35.34028314298679,-6.226997529791891,-24.550754298923074,0.8027641504008303,-16.446926398565893,-24.903818247344038,-26.128199663524768,-34.39613101922369,-16.781940857578224
-5.563606892511156,-9.213108908594377,5.039051333844462,-37.09186477732672,-5.448316617194039,-22.434807766253027,-28.379849385581803,-11.158139372650567,10.787783029616755,-27.832268400300055,-3.2588693843767444,-26.526174489550712,-1.360867877487939,-18.462895198146715,-21.204015121767753,-26.39333494427646,-32.72979241910964,-9.095041947719558
-0.021321419385570195,-4.37288065923639,11.450666147966686,-41.32736742167702,-4.684533243024333,-17.809923919414285,-25.09346197714298,-12.273939936343815,9.862456124303172,-17.985282975155428,-1.4600374619207788,-24.68803903958166,-4.696263112750831,-12.375779380220376,-13.989121124125736,-28.800695458827875,-23.06248028193764,-2.3835482715169416
-0.43746555964154066,-1.9746419598031668,11.325105614152548,-37.848353620079344,-6.460377507330411,-13.380521758303349,-18.678578053506378,-11.338569119499528,9.621699341315942,-20.740986822893444,4.442980632432846,-22.259048676248664,-5.297183715963952,-5.900516819764536,-9.997549123523513,-28.662796779387037,-16.52719141968165,-4.069572650209523
-0.46438075640680365,0.32545230454397256,12.963149912034499,-32.025976013907496,-5.30710848446298,-14.420113631599806,-22.123646765771525,-8.059159548828223,8.600562514225548,-13.052176375082617,2.6335617969478857,-17.383702489847845,-6.288748568086276,-4.115285426149776,-10.596535245650573,-28.909459190775223,-13.709883231499601,-6.828909393406182
-0.9810800575155545,0.28133400070665715,14.21619759873311,-23.46957865704121,2.7791495113177636,-14.971570629017137,-16.77601017736537,-8.39293881576506,7.189591938223263,-13.766816005466934,1.9008651770679776,-5.276768224961884,-2.2998525307298117,-1.746541698846137,-11.879796596621677,-21.43517928463139,-9.434702943954653,-11.540603138727779
-1.1087359466400866,2.5806350010412213,21.529525025450305,-25.851218258242298,-0.6590071554458701,-11.323890726302192,-12.401413507364381,-7.261809381665426,11.63879780272837,-16.537170590971794,4.588638197457868,-2.5400595876252763,-4.5612056052069905,0.326821160716138,-11.405915319005762,-16.005821007280332,-9.85409211276176,-13.517207400515968
-4.265460155967553,-0.3938877071235538,18.7894673256424,-21.29949953740411,-3.5121084981351522,-12.559234729224134,-11.929561002527517,-7.497950076542569,7.592406702624832,-17.74991923134132,1.3216986455722939,1.6664338082719956,-3.795391624152738,-4.633553559829765,-11.518701745472551,-15.551207376973192,-14.089131457231312,-17.348760980909987
-3.7129580499736248,-0.24360746424160595,14.394449257862156,-17.04106451316585,-3.436457537876099,-13.697047747362955,-12.918982105212331,-3.0466847087807274,5.011422192934447,-20.041833937437598,1.7681228670822389,6.659108107883188,-4.983023686277789,-3.9321314178014317,-10.948628738241943,-13.235388256909546,-16.182695646208952,-15.906373752295863
-3.8459159004626438,-1.1677458820967352,13.324871625766523,-14.540746631356804,-7.951787996462712,-15.616238197270585,-6.971085081499604,-5.3340718178182005,4.091073573033649,-18.920669279076783,1.9239028716349829,6.676156046240268,-5.096779350920267,-7.139341885251303,-14.773921177143308,-8.863140679734467,-23.068477469414916,-15.342608048093759
-5.836313011584084,-4.53344998466507,17.240769121768963,-14.77508874941028,-10.808091136148994,-16.949585388654757,-3.0703569860235733,-3.715519834464379,5.026589994866898,-17.90211215727474,-0.8477616329843034,5.819201171484023,-5.601591322971008,-10.251187749231125,-14.498376967749447,-4.192397305337931,-25.27366578467319,-15.46227281340834
-4.020085260952147,-8.58281907066536,17.938741844783593,-12.568194229182739,-13.470318544686716,-15.548605647234599,6.107556612085201,-6.003749156219337,0.7865277883090425,-18.548692364871652,-0.589790417431173,11.119598277960023,-5.911578811754391,-9.947275204405345,-13.930668177349201,0.8744054574561746,-27.778791394533794,-12.945128951611686
-5.428673054618757,-5.796145813296366,16.199899257485676,-9.384890919455623,-12.227560393151151,-19.030588273827483,13.238347929921499,-5.265160418787193,-1.3048688715084786,-12.266532473736017,-3.9429522875919965,13.104543102934848,-4.366624881721361,-8.669016374154074,-14.535680016218459,4.286360116252817,-22.67355980480669,-16.385181231107026
-11.62468158949146,3.3383422957746127,15.930395891967366,-11.08460316010449,-11.669813533467458,-20.266502797124698,18.322038426561814,-5.5038200723698125,-1.0523706974155065,-7.942488356822707,-7.391611578943415,12.945924071311628,-7.9004926766792405,-6.416379174663765,-13.286040559733749,8.4848144346805,-23.337060275832744,-16.1144365110843
-9.91268417029729,6.1252000349799065,10.78232106832689,-8.682777004817229,-8.379138856129343,-18.475070875065096,15.108552849455492,-6.329195100765393,-8.124179916464424,3.1149794554929677,-7.615448558402086,10.936708947550342,-7.919363557202435,-7.486271422229198,-11.45131736912938,8.782100366061302,-21.85899113004982,-12.718963793987998
-9.765559212379362,2.9551190627282935,13.158047837029098,-7.648202295234249,-6.4572419357515285,-13.656275142262903,13.363683914201452,-6.667147068740537,-11.87568846958954,11.335415075746297,-9.204420843302138,8.44409962927423,-8.524923953800297,-3.577751828783337,-9.129184054983215,7.814879605018748,-19.020585988008463,-9.714563650296773
-8.448965645734294,6.328350430065083,13.389297725196982,-12.18011653326554,-5.220597739364777,-9.032802752816185,12.794475618727898,-6.5177713678902,-10.64679995663192,12.031251602404097,-8.154605267265133,5.858719597740782,-7.861736954945154,-0.7455663213550778,-6.514970913067679,7.145577948030926,-16.970283276324793,-9.15216985061002
-8.20910511446582,16.635584941063794,10.304013527338437,-17.590901187031793,-1.348920877171568,-10.757072202893415,16.72130679725465,-5.685846519530755,-11.371298580650613,22.878546535228566,-10.716141677993644,0.34848589030640387,-2.9024715300896977,-1.0404929383517292,-7.807974546386944,10.680406212494509,-14.047866023308277,-6.441989079406149
-9.534337844284503,20.790744707011164,3.4137402242427406,-14.798337776283715,-2.2642759707248823,-9.258605010290461,18.89409613924159,-10.616875910516246,-15.318818994601127,28.935674009523396,-11.029610398326827,-2.71543530592319,-7.416926673083006,-0.946818030576889,-4.023695619261424,9.141779570639564,-7.616536350135295,-4.220899978195385
-7.346530716135115,11.957846572625602,-1.3245682163595838,-12.396257185506999,0.13885447425448127,-7.564770403309676,15.211230946971018,-16.525721275422697,-14.28619434532347,22.68299818877039,-17.884252979187593,0.37793959035162317,-6.072893496259219,2.0745951057512215,-7.759994366986408,3.0178864999968633,-9.883469404062685,-5.516411281109487
-6.8216111096247625,12.10994000919716,-3.325135262300048,-19.173804223878705,1.1728254568097656,-5.18725824864746,17.098677478957466,-20.482739804588274,-12.2774744964855,15.937117501700648,-20.2447898878325,-0.6254637040014543,-7.464308086521257,4.6057614380046346,-5.442455689634252,0.9025072206928795,-12.840684682227877,-6.812962211857098
-9.61982548620537,20.27050476540075,-7.080388461339098,-20.677580040038603,-2.1898249498298963,1.9755786360426235,18.013376030349317,-22.292703737307992,-12.02715780445116,10.944173506285253,-14.400272226602503,-1.6240326974258181,-9.442753718073513,7.525636867893104,-3.711815741076289,1.1353585705225404,-15.70687104679407,-2.251205257778197
-12.225557751350747,22.962828989921046,-4.582566080940989,-18.17708048907039,0.011922286592199072,6.208801486061606,17.174071738401132,-20.393175211337528,-16.074426177799733,19.325452426415815,-14.3158021512068,-0.9575994288617151,-3.4144013820276076,7.22092157561882,-2.9587143757014847,2.15381448184086,-17.310083032696625,3.2858567023248098
-11.806793609275694,15.597054253115441,-9.894556982880985,-16.262163190238745,0.5513254831139802,0.38341853241220214,12.334641767637706,-19.862440893726788,-14.751242961158532,9.43986317071515,-14.229618364748347,-2.825461374099026,-4.418593714218565,2.617417267466676,-4.843341164603391,0.051462500807044176,-24.290991060715147,-1.0419002851415433
-8.558906274744198,17.607125203668843,-12.371842963334121,-11.807722950676311,2.3580495090204385,1.9801890210851134,15.799964651736524,-17.380219943342553,-15.284359420468988,14.19808240285045,-11.016718580218585,-3.028351387258858,-5.228707096451463,4.652827928095105,-1.064795306066559,4.398657712938645,-15.262490851318312,-3.222687858226142
-6.388260604812761,15.51632700688242,-8.108290945725248,-10.966138612772696,0.6467993690107221,5.042015010339819,16.827690302690527,-15.388036279350667,-17.28322189516391,20.513992664493287,-12.587425146326037,-0.5897087794412377,-7.504970728556346,9.225565762136148,-0.8029106318434636,6.210784000971878,-12.002196034579258,0.3567178653378642
-12.32626661103409,19.090485867743634,-8.823007203401076,-10.51464475427873,-1.9457300465763367,4.100087650908835,17.07799964719947,-15.253176724027039,-17.81817421573711,12.860034440501916,-10.25024456501475,2.634951639270673,-8.610671678549377,11.452781215717529,-2.4951687349399148,3.632239725296191,-15.974907112603095,0.02808933026555982
-15.923596245303056,12.411441168357763,-5.531657900097414,-6.449212890034868,0.5375209812857564,0.9122712023977364,15.671970354802568,-16.682744518318064,-18.744788147992764,8.814623535949853,-6.837296630973273,1.2744353759302323,-9.034143103370752,9.479014804492845,-4.481392673167367,4.475538992234521,-15.754599766457098,-1.9625554515811197
-16.88732381647266,10.90916565966982,-5.851725697096548,-8.340239344341622,-1.9622555182215047,2.8029213984569346,10.168154212147162,-16.64942414030413,-24.360077567250197,4.08084334767687,-5.180701077216221,5.2898120985408115,-13.072368401595678,4.476197078000039,-2.7576189748141138,5.713186250511264,-22.181211365913082,0.5371124561060281
-15.80344063708382,9.310189921488885,-7.439604311307011,-3.394496953909959,-3.0973654507731005,5.0844921700223455,12.28547326167324,-15.250945677025786,-28.804649921994127,4.518183602365548,-3.9132947331700536,10.872409071979643,-15.451870788029005,4.940589152083707,2.3831760025194555,7.14975993734745,-17.090327459724584,0.20265521791234864
-14.722801427239432,8.395823117553146,-7.756372406515592,-0.10814498572198161,-2.965523820721148,4.436645993217018,14.699588133901212,-17.56558185413916,-26.805057595242687,1.3374743358399481,0.08992498616529843,11.186162571307124,-19.102421974877892,8.040154310483901,4.690894459636679,4.976501657042045,-16.595397452520203,5.725505797097356
-14.719680777580315,5.627009901712279,-9.731942400272874,6.401768535164198,-4.105887357105026,7.011846270474029,12.13696989979751,-15.976097041354247,-31.34984882095656,5.4764103978534155,1.1647641583774346,12.285829523743185,-16.60207152406562,5.864653343329385,3.4819304619642892,6.322319490612936,-12.883721552910796,2.0662677676150087
-10.61825515164075,3.9335269920111258,-4.479640339711393,1.1936751006041604,-3.1981465741135366,5.388130608272805,12.312566951487975,-16.927968024627994,-32.38034356236747,5.704380909372075,7.1237971178030834,9.581472136450301,-13.22437350201011,4.371246105029913,1.588357366709353,4.839352991320749,-13.865493344575157,5.338365321041488
-12.867936650038686,8.686593189687287,-0.20289686468450974,-4.501718753062926,-3.172085521245603,5.034358346389025,11.808343175930686,-15.245398327389346,-29.505976421802547,9.24808913805823,3.611291317241742,7.760636888399231,-15.610088609087013,7.270964363660676,1.7445914083822789,5.019750510761426,-11.239718839065016,7.338446917241116
-15.999922921715957,7.386059395038846,-3.0543300240669673,-1.3092029424046654,-6.859828647988942,8.58731434838918,5.5460787391149164,-12.198000117555697,-25.85185898178596,7.904316648864217,-1.9508095967436816,6.920955436512804,-17.8021273288839,9.48564318528955,1.21621596245949,2.1758325031288734,-8.1313570164384,6.69920443908576
-12.103965282055954,7.2586385270166325,-0.3386138564513992,-4.75629058707745,-8.890248346830528,12.140714830511296,6.904864547949147,-9.05538334314398,-20.343818310497504,14.368602615862716,-3.8007434036703724,-0.16427210026625882,-17.456734783781855,13.261448031912451,4.300172254977193,0.9950621854146775,1.123832299401606,4.885405898304633
-14.070910847778656,7.2301340709959465,0.7173988895152092,-3.221642593523802,-8.091497926463786,9.053859182741162,10.415845512695006,-8.942652782827203,-19.03669480052511,13.601689215058851,-3.8917091838177513,-0.01830571150993965,-16.527094911935976,12.93426727648636,3.379157747863312,2.6492238737699836,4.123409816260221,5.412633567215275
-17.017895166926973,1.7340919133914459,0.01587088803771053,2.3182320302337622,-11.006690233729836,7.920654111834516,11.196110831962438,-6.586345321954081,-21.637574017904015,12.732626819517204,-5.6417719355057105,1.5970187986263866,-16.673416680392226,9.090084501864524,6.461108830893931,2.6459527357872448,5.9456740966362425,5.058087420397241
-16.843312833158894,-0.0496248803166397,5.955188712417982,3.36717858294546,-9.530275140469533,7.764547605564632,10.905816140385218,-5.5998499499575,-20.33389381357096,12.933344826140498,-1.8243027846241016,1.6542813539409096,-16.626175104697374,10.81110650523358,6.807643612033912,2.5476636429950057,7.664958639356705,4.212305644822987
-19.308987309807687,3.1485681940198766,5.546694466976147,6.956623263742571,-8.642837723557967,12.784847655249735,8.66601367695455,-6.3738479778134955,-18.348414947430058,9.906940345944244,-3.0840390927520565,7.86841230916767,-14.041608318581845,11.847274687986545,5.883630824566277,2.7448784369059305,10.550914618362967,0.9220425479310501
-18.36015261371073,-1.4644605769936163,2.6965200363424,13.281950601429227,-12.543699147866937,11.26265034930192,6.234512515847491,-2.755949869564601,-12.556143345739956,7.0714731151615045,-8.151473703233922,9.790001380878946,-14.779202897791075,7.315738605631599,6.325832512790631,3.3351456271325306,12.455174411652798,-5.984683700426714
-13.899162018902736,-5.0994840007021836,6.486658384437165,14.921241455407902,-14.29919619638664,11.889519170514172,4.880830887595006,6.035060463200452,-10.379119151431006,9.700501081820569,-6.67492939448786,9.762801284338106,-13.370145846411416,9.521409858755836,5.009204459189013,7.345745853437021,14.647393326843101,-0.10145970599906207
-8.367467154011065,-7.365842228052642,3.3425077315094596,13.632404243316781,-13.616389962652995,7.73177885276662,4.214303304877715,6.3270558300094315,-10.645499666881337,8.32126457928538,-3.537336164862796,7.1031738452212805,-12.744188122301278,6.452422524666363,4.863482719590671,6.0850309030940695,18.885517315099758,-3.303704151377697
-15.730130100870976,-2.794674641809305,1.7601166553434346,10.196769892762564,-19.577482564402743,2.305131968432441,4.137235374247665,8.276399897329838,-12.378755979487497,1.468939777727463,-4.89117438426653,9.233072391452577,-16.612340926772895,0.4525982450143107,3.544885746691694,7.756141610724665,10.716309328232285,-6.021041279021368
-17.822813561453295,-4.081462037787698,-3.534206421181123,16.626309287670413,-18.8033938510664,0.49248906791871816,7.676978270294793,5.5353005132466215,-7.668657947225249,-1.6766023312832319,-9.466935914549325,10.00002346030666,-15.599476628449851,4.217478874398132,5.057385447355546,1.2259863071419332,14.74963016124557,-8.15589395220565
-15.622094442712159,1.762298668301515,-3.458463950936107,15.830986522838643,-16.470012258243305,3.465766166452723,6.727898686601342,6.697602035423461,-4.132554448669113,4.841804967647688,-7.108258001393345,4.911734279907446,-12.537683485927143,8.664929970234716,3.4438645612364827,0.8501435847436136,20.340898133882227,-8.048158962954634
-9.4209426234622,11.220950670863107,-4.458237625706817,9.568709246975883,-11.79610203271685,9.760119860581787,9.004915126475982,1.802180468155541,1.6475319145750156,11.453748859189103,-10.413031074621188,4.222229969528015,-6.743369515303723,10.669938988761706,1.8293759706209105,3.0151679784723826,25.927703044180298,-16.147290596344796
-7.617917585203518,15.017028659469329,-7.314958647085842,10.144420688788,-13.961514878706222,17.031786626431916,10.601672937749981,0.5171198626778395,4.300383547904865,10.346657005490762,-6.978763817208322,2.5602963797818052,-2.122854954608364,12.381011101813769,0.4092406469717771,3.5216677540324564,27.31087728598864,-20.83209152851763
-8.357513287343954,17.740464557320237,-7.0482498681324515,8.085387611821623,-13.981760804969115,14.343121325731403,10.54154760894902,4.209598644517344,5.6814572239436885,7.380041847880285,-5.106405548958861,2.4649954908016207,0.1519582112850415,8.81763619860635,0.7459882013504977,5.396924163044104,22.14675183392689,-22.200290863769617
-8.319354803477141,18.805328166678095,-11.861527263217269,8.372221849340228,-11.856859893642532,11.264603746251266,6.3830464804396305,4.57868125935088,9.013419651727215,1.089086483452174,-4.112393224746867,1.0065550388927793,0.3740355919384939,4.569762450990782,-0.2854230194273617,5.711096568955804,16.490224776324467,-25.623133237747084
-14.632442644137278,26.121910763826087,-15.407201612961714,8.563546458760523,-13.055663668447105,12.581483887648213,5.548106619971629,-1.2077320970808838,7.7531650791621285,-3.252640746716723,-2.04361290748138,2.188901540525059,-1.8472599294106153,2.9577871616923357,-1.3177783747372604,4.073445884606949,5.653844196794909,-25.924824871506196
-17.92161650628446,26.115798855764385,-13.486151954286763,8.268796462617368,-12.207012507587148,8.235034711897441,2.4701836515412943,-1.8213665976463442,3.56083945812515,-1.445805459185527,-2.513441581027287,3.3752344398997014,-1.0430996445534717,3.7864287465607727,-4.694857116743841,-1.3716327269976158,5.16531175153633,-29.25786732405936
-21.018930904312615,24.646467282214836,-13.520526262635462,6.413802074028981,-14.09614979251475,4.0847402744824075,5.059499355953881,0.10099806560160118,3.467765961468654,-5.2092837192756285,-2.4945296369352508,0.7568595840394883,-4.92844838556042,1.7822028990826126,-2.4087178254783845,0.7040512155409302,2.1339280367767914,-28.39564920408313
-20.21336909661494,20.73734710717037,-11.897145631350718,2.900970230190479,-13.449569720890915,6.771345992640021,2.6713029294089665,-5.304088239447223,7.473911967820317,-11.027342926993798,-1.3033129719668595,-3.6154534594629713,-2.175010317404837,0.5584794378634621,-2.369630521650161,-5.324847637035065,-2.0729750118691763,-28.807062759622447
-11.69625397167956,16.048626406578343,-14.280314115113972,-7.836126304093164,-11.439175414588071,6.919727333104502,1.06734197827919,-11.493572962031731,7.766627124108968,-12.845148026056833,-3.0414564968595577,-9.644090585499482,-5.087661417562433,-1.83786322566635,-3.308037466994097,-4.712116954949772,-5.209144558642309,-28.53900938818787
-10.213876455535885,15.756169928872346,-22.818654669263246,-10.269843664921435,-11.482996121114859,6.678372524401426,-7.27209045729238,-11.045481541913391,9.814715200379379,-18.670577319855756,-6.146475947267836,-12.54386679410263,-5.560808712967356,-1.9887711830671444,-5.9075355567769146,-9.665080143043456,-8.836978434182571,-33.45100708335336
-8.637191138906754,15.856012880707247,-23.644918312643103,-12.603369659246399,-8.991124529220427,2.1409893263726127,1.2861158860188517,-16.557673791677836,15.18067181161415,-25.573840990456638,-5.149577212636379,-13.486719838608838,-0.7623759769182126,-3.995836718517694,-7.629016109817003,-9.734464303188723,-11.296167885804056,-37.87895787858835
-9.602924129897378,14.10202783023214,-21.64213952129809,-10.14907126006067,-5.13545816124951,4.245261415742981,5.3548512126359515,-21.68240557595825,11.65725265182084,-21.542978158896368,-3.664135781809167,-13.742245792138124,2.276282443152395,-2.585509256331906,-9.351391216209946,-7.557133079373405,-14.051450727926575,-33.52200219793343
-8.42346857984656,11.56844856058266,-20.22848392829553,-5.153015903738119,-2.259785621660857,5.764532216218622,0.34413520200871517,-20.071930395814583,10.377414737195377,-19.37109271501967,2.118461332353273,-15.361303205825529,2.9692241869393072,-4.984429144088946,-9.023840647829623,-5.184002994202099,-13.684676693914962,-27.313885306608363
-7.9308612366984566,14.993655847785984,-17.646254111717663,-7.087944761791435,2.4679664751692627,10.702784678340226,-3.687353248394176,-19.343556229570996,12.610684751886922,-12.124423820362217,1.0651930922172301,-19.22285828616275,1.511769911017339,-2.891656225462892,-4.20491312304381,-4.2753588868988155,-5.801117087218055,-26.774296302736314
-5.488303060761353,13.439977585246726,-22.196496974273444,-2.184057870883362,6.020408831296315,11.833361046719123,-4.4935562287621185,-19.887915927753888,11.618656106244547,-20.11571892566171,5.67621178076493,-13.608029282018746,0.05239612848222741,0.8607671084475572,-4.172086106763063,-3.268779408599049,-7.783718281891822,-23.504710053473772
-5.3926922783862565,12.180924632580489,-16.496270774896864,-4.992300981068389,4.002945473257363,11.695376990573807,4.956811687265348,-15.552571403445867,7.401307695954019,-17.660928681546096,6.185705126895041,-10.626423543073829,0.641922624374974,2.4642208994544563,-1.2103902340250192,3.2068094579152127,-8.694681081938944,-19.165346097937764
-6.667406922268107,6.138285521415156,-14.217792076133819,2.651721974862694,2.9586489715470616,16.24596849740937,3.08131634116661,-16.689240318684444,6.0133997216872785,-14.037473532267796,5.816340486639358,-9.88745817818303,1.229545068648635,5.82504650012796,-0.5933355582398541,-0.8645625190284467,-8.24089908931535,-15.514079184730239
-5.894379354551132,2.7340376741853003,-10.087672723839516,5.318143270132893,3.5711290994662406,19.039737975715028,6.6770137507201754,-15.58295609296353,6.087705552777853,-12.663308359986214,7.888443136859677,-9.242711463724113,4.256716107269934,13.482376746463116,4.319812157824838,-8.35398027854956,-1.3440358163704218,-9.230579081250765
1.5163530509890855,2.7494303654661447,-11.528027586630571,2.32341269538383,5.05913110296952,20.4673290704488,3.6342671805999807,-12.136053581172769,11.92114891053414,-10.70629155010493,2.1479126490435574,-8.301601484264813,5.817136165946259,19.283805453823057,-3.951674695956364,-4.124593150896333,12.28901672459893,-21.506605876656515
3.455281402027115,3.8406633971023485,-14.242039458767536,1.0895711720844816,11.03600007345932,18.28262588114459,4.500033962751347,-15.33303520061145,11.306496863091832,-10.021851915937102,1.7785063964556285,-8.919674831164656,6.9850512658575425,16.002691155800328,-12.02867790575581,7.526560200913533,11.661979880970113,-32.3223509129379
3.145163991010506,1.6131222708875423,-15.007122958707773,10.112893405949917,2.5561446349165884,23.423306879900842,13.180543482817917,-15.603430499919918,2.8765270724349072,-4.945771213248237,4.241085754124896,-2.307784904172212,0.3384848449281961,10.475106836395486,-7.02036804547862,19.76334086194284,0.19301068801901256,-22.048634132336918
-0.6834950153646169,-6.4723121740260865,-9.721769669414265,17.869815961157496,0.7136483395865376,16.455492829164772,15.027052912505596,-8.747942524483907,-4.97020733709418,-7.489881130350393,0.8440746289939609,12.6082529408022,-5.333354025618215,2.310452593581368,-4.844949144985858,31.316102133868895,-14.793423615877515,-14.025678830636597
-0.9016239398467185,-1.5677157010761125,-1.804113736177106,25.043991451660613,-2.694725862697883,9.293438573517832,23.516247026970156,3.7685789287477682,-3.835151781081267,2.17041092608849,2.622760593914129,19.812518335638327,-8.370270572275512,-4.682588747669399,3.579756097076082,43.35664188948064,-20.50402180164989,2.4888452546870745
0.7329963391232077,0.4086787761581441,3.9605058137068703,36.03006509696457,-4.934546718574694,0.667603564443155,36.79254387664194,14.621821794114261,-1.823908286206744,8.800569798294344,5.377823915700073,28.777760598164104,-1.5455781389686294,-13.726691732618871,12.589606046126967,49.830086342159916,-14.301887126752094,15.483017121690295
0.8024050961788234,-7.281535711636536,2.103149301709635,46.53114167629657,-6.884717982949686,-4.343800080572272,42.843955052115774,15.803871926520408,0.5752263362009282,1.5606595551414646,8.230308179869601,31.78896629133548,5.765594763035846,-14.665420568491474,18.473613664317142,37.84552105632824,-10.83554242239824,20.073932922180358
-2.4511751377334097,-12.821797104819428,0.924621987697801,39.16418717993831,-5.713147940160314,-8.670495345182221,39.52192245571048,5.849885834162947,8.733421179343635,-5.486531116938119,0.7307985914338531,20.83814827124293,6.238932782507067,-8.377664140901883,16.739529756451883,16.38736660655015,0.2468713263926965,10.402113466048831
-5.707317732005185,-15.821500506936964,2.2803219103263928,31.5076369225639,-6.400362772882685,-9.38274118068935,35.420238013006994,-2.5446056263047456,11.908319721224625,-2.9657842137792443,-5.597127960181341,8.913733046683177,7.882386347797773,4.355346378257805,15.395295600951126,-10.540499893799405,14.0626059805853,2.3857576115561763
-11.212085693222086,-10.323551371621338,-5.353459613330514,27.077209966897875,-8.067422976441161,1.8203788263883647,36.593591072479974,-16.410933111560738,10.002260634785193,-6.111631439347713,-6.261251721509335,2.5587358147949217,8.05921275120551,16.99057313669406,16.101099078318203,-27.215271155273506,20.064764716158365,-1.1430710235627473
-13.691894548960613,-9.511773731082084,-10.45320086627936,28.31438854370271,-7.491602038929393,6.383902240431366,30.05341038894384,-18.75662124201373,14.831828423241433,-15.998231408590495,-3.312421373317382,-0.8636562439537112,14.972678942100082,18.004433536041798,14.755321090771384,-37.543344220402645,15.226096878555595,-3.700060049688478
-14.806857952145375,-9.186915360176076,-10.675203927988239,24.47685826336672,-7.309636649476517,5.675045334238673,27.909162741265774,-24.523273734787203,21.61179331522705,-25.887122795589157,-3.1960837470784016,-2.7207057495031783,20.81018295307921,16.96741686297669,11.65094051898243,-47.6772426437184,14.390718375201658,-12.218916157337926
-16.803034637998532,-2.5129665158656174,-8.753969540120579,16.052943145859256,-12.697363571725361,4.576702776617831,22.055161590345904,-24.921661560616833,18.62322755697065,-23.66866787826719,-3.3731734263926025,-3.5984138004369335,13.559840423453991,13.488922941575215,12.354453868956435,-50.39037799928427,8.574256577171912,-9.804855674757567
-18.313145666845497,0.25597657417315034,-12.013908359112847,13.003766299202379,-11.2522252151767,2.2099623508111366,15.714017233103966,-22.295536213466796,10.944336287795245,-25.749288411194946,1.2344764025147859,-3.4968354316983596,11.483666837951834,4.9322236241254345,9.63919333506293,-41.67886564178813,-4.078646112571201,-8.372126560184254
-19.63009246365618,-0.6848055513582754,-17.427706670323015,8.590975568133192,-12.446996693230684,-1.6204841637276708,11.229419380067293,-23.187930205510956,12.44252287419308,-30.175750408128238,-3.045253401504046,-8.373148181765377,10.675371045185123,-3.917420912060795,7.020842165009692,-39.80478398045496,-13.118472085066017,-10.752805287136498
-18.99596276844321,1.305377083990738,-21.089127139316073,0.17784219342373397,-15.01210066105849,-8.281838020567122,5.183250248104827,-21.83699903359891,11.398864409982433,-31.96742939833892,-8.888067700544674,-9.145237941443796,9.084159308010683,-16.575658301604136,3.132196231582378,-35.588384705026975,-24.599861918419524,-13.431213629541453
-22.953751170592167,8.374957015620797,-19.873190354958435,-6.473798609534381,-14.259937872855733,-15.137333245314903,4.216138566173745,-18.730991860639147,9.766523284263068,-30.147667777005175,-10.53219505280584,-10.012443573916233,7.686628164113692,-24.5462340159627,2.1725422234714116,-29.22506078417628,-31.49131916861538,-10.352570590588847
-21.151662236839197,4.605683475471914,-18.174558863305677,-11.26626221674633,-14.096789268583331,-18.182995586424408,-2.0237343374267738,-12.502659143941752,5.104065290531252,-37.314233405551114,-5.829200259501153,-7.94743146689814,6.7757702819620675,-29.68461383015189,0.6262049838306816,-24.52353977193446,-32.3278387918143,-11.08733213434172
-17.30061422349719,7.575909202830665,-25.36843589238695,-8.730689945762947,-12.374155005800198,-20.641523616278583,-2.9894312539705155,-7.937187390938563,3.3686236219947503,-35.40036340224671,-6.791020305283401,-5.001070773280822,4.886739302509073,-31.697793063053382,0.5440001675449544,-17.6752436739054,-34.72658584993454,-7.139270906070523
-9.642691141371502,8.496395757748157,-27.782793905131218,-9.414094132931293,-12.119394631347923,-20.950386665886025,-0.6342061139141855,-8.257237756329618,-0.5179913770620901,-27.14039327602299,-6.386332718154169,-4.298466050446322,7.683704176781879,-34.19907644898502,-0.02722429346622013,-15.418628601724915,-33.902192746864785,-4.563161509245823
-7.943589636797764,9.61322801412294,-27.46849741198722,-9.117169978235879,-11.867610866287485,-19.69552435026346,-3.747354950921249,-2.427439895073338,-7.7276579297745505,-21.90938469427403,-4.810487675563323,-0.4684987132857196,4.814964739429093,-32.79383382979809,0.47505779962660655,-10.234118771719338,-33.66317343204159,-0.4292652047495089
-3.4140351292209417,9.949784120925022,-25.109198429334395,-5.98440006017556,-8.20075091099709,-16.388641123591437,-9.008614207345204,1.2513453566948307,-8.1039545353675,-14.922026928166284,-1.2822578429313563,-0.24961019134046852,4.288476225431864,-28.067979589151047,2.0508484246652205,-10.61800594610082,-26.782717713540507,5.164767977830973
-4.940803505609688,14.095932138026734,-25.392512175479066,-6.9494651774625,-3.755541200635122,-9.760179483661384,-10.656276901034623,2.681508626287215,-14.928315418149365,-4.811030178500323,-3.4189814383903636,-0.028521685484250492,6.006601681603033,-23.634817852528617,3.2352830780893176,-7.097555866123269,-21.17096570350425,11.144711708085396
-3.246330594145615,15.703871978185557,-31.834156837453094,6.249649225014862,-2.828889165209066,-10.552483918077193,-6.151341447502999,8.210852606784403,-16.87242234000267,-5.736685458420837,3.134994938049477,6.347146631975905,8.113865065958908,-25.158465095402942,5.98151778156227,-0.2587796760384613,-20.050486664904376,15.459763279846051
3.720275293820027,11.55085001494549,-30.078480007263806,9.100865923966449,0.04807229864369589,-10.269324051213179,-5.357339128618751,10.319782033078639,-17.940220280105606,-0.6088071755819833,4.414580120053593,8.42795856110228,11.684522765958546,-23.752034335393898,7.164505690052202,-0.35580296864157823,-7.6982490521090075,13.617677435317809
8.146474273392652,7.105650301222951,-29.30534050679175,7.951951986350932,5.461323737713414,-9.691954758918921,-6.41887217566093,7.836455816371281,-20.280155136319735,9.69376572728238,1.2986595032384658,3.186465959973753,14.960756923347036,-18.634230865932096,7.956140146140263,-7.095713583965237,-1.594853850689148,21.439019745791107
10.911265405715362,8.22768669097303,-30.198369634598794,12.080405094202794,11.555402576134906,-10.187577292704004,-5.918018642703892,9.550123356502638,-16.665527703827067,12.67092276998946,3.3576574035850157,1.6579350865449858,20.28637497899202,-14.199620078807516,7.575159313286167,-8.661984216155666,1.9708265707282155,24.86108811158327
14.065540601139272,10.619966940148178,-24.066051523527733,9.767307216620313,18.52565909255381,-8.53347905115487,-6.979924738490681,7.843534633462085,-18.326949587901172,20.334645675230433,5.318021671676906,3.061045475373807,20.82535701158034,-9.471591560656183,6.4121938638783575,-6.910169378346634,10.12793964390599,25.055788641166913
14.484331405621116,15.64964664728863,-20.5765213653814,6.28618553174371,21.87987228267587,-12.835245223523856,-5.698378848821713,3.7909793539807417,-20.08852995153267,28.974019321969706,4.835932386340417,2.1222204624945276,18.82385314450883,-7.96579088250858,8.471210487905243,-12.19204518550881,14.087419941591065,28.566203836525055
18.027181218588296,9.839903864573598,-23.538445887756346,11.402821699053648,23.864205390183905,-20.45610952151264,-0.8039277133328344,5.302789821591253,-18.82518838288945,31.167133676205573,2.98559054448575,0.4039250566572059,15.06314761573254,-8.217318845014736,9.74824082325933,-8.687111616961813,15.021290203084828,27.091440328879244
23.522275810789417,0.1243833304962969,-21.721195817767303,12.812346553754617,26.529506295220955,-18.798216106028526,-5.187489666168,4.859376119207367,-17.954910926980453,29.746140528969036,5.333453192685901,-2.386872917401626,12.96128387257035,-3.585416039289542,11.024545422441125,-12.997236613404592,16.933646194701943,29.908998554855053
21.3992348664146,-1.8756996476372851,-18.152167965553325,8.756925327387428,26.848420450348108,-20.459406045878204,-10.645910351213836,2.753768197675157,-17.477660580884127,26.957244244666903,2.211369910125194,-1.5626609932967768,10.955760853745224,-6.4725824443752815,8.198497489169482,-14.18480364752282,13.379203944160373,21.198340271759722
22.009856531447408,2.2770744074314493,-17.909567753575764,5.584314160790125,27.65305772417284,-20.849758109928626,-10.53855834070659,3.5759371673452094,-14.366008247771624,23.386466529542222,1.1389525265922096,1.8022665377301286,14.515435042758705,-12.191213620456638,7.129559391860019,-9.613102373194147,14.612151395612877,14.63156525709218
18.127545112913154,1.0590346148706598,-14.15735242795715,0.5600978582787928,25.818405798202267,-20.555211275501154,-12.67814674129471,-2.0492021704068257,-14.186403810803334,21.865955953445404,-2.0831159659650247,-0.007111018571909045,8.894010988453626,-10.487214091321588,2.348895327749329,-10.219846613797076,11.355126717834775,6.888326969849426
16.686076541220086,-3.0884338825861217,-14.415163211192727,-4.753199692917805,14.703773629724335,-18.696838419903614,-16.57647965130455,-0.35185013222895023,-17.134119294299467,15.950374535471536,-2.571982770696702,-1.8149927159522874,-0.5373119956262276,-13.763084292272975,1.7667795941942654,-8.387777879923641,4.48717120927507,2.4608985177321614
14.853451957818404,-0.008985239804330192,-16.534521287108056,-2.933591658972068,16.86813436330777,-24.747432902656,-18.1320235994511,-1.3906952210110273,-22.525504914619543,14.62430592630693,0.7465530091392685,2.5309997511068922,-4.305709189695774,-13.815541738530527,-3.0153563960590546,-6.265410035441425,-5.405648991224501,5.939211161326682
14.778216401942377,1.8010973009814961,-15.925500633714517,-1.4030691471914913,17.36988878592687,-19.663728020138905,-27.891904865808684,-0.966395533092248,-18.739241853881346,15.446376801776193,-0.4284508245563643,2.9720597986789494,-3.094760502194754,-12.402393741125822,-7.309944314862536,-8.345041074847039,-9.2410463844112,8.827059372546104
10.991610262167805,5.076169940316412,-16.103764024154383,3.1587267317454852,14.060601472691763,-13.79743694239578,-30.71926272310846,2.093001175669297,-22.279438327391546,21.444045842518513,3.2781144467094148,0.6800209482384665,-7.7444504435372234,-6.886849661658879,-6.527073819106354,-7.204723092758794,-4.284488703453659,9.952568502251184
8.669566615177366,15.28500497722223,-12.772351453425689,-1.8460581731617065,12.2138250571804,-10.957204380963761,-30.12986338297112,3.5882716649349273,-26.31000054662022,30.175936777768932,4.639541662194929,0.8306840724680515,-11.614027641011468,-4.886181990994693,-3.303507563112774,-5.481253846619657,-0.594609855252714,11.171254194158063
9.37468110123478,12.993650398359547,-10.228180554470157,-0.7921924897361805,11.438963034251886,-11.533654316283656,-27.100370314469558,8.695335909282624,-22.33465105077115,30.802106124555355,2.9721921879670443,-0.09168880636380389,-11.480761203778712,-1.4198152169701919,-3.6940293165026716,-1.9051199498872151,5.246722083773201,10.627638297031531
7.149902256908616,14.901517514800751,-7.201674353992612,0.36319322725372416,6.267216185428591,-1.0734344477436792,-26.611412768274338,4.91406301861633,-19.142530319338764,26.057034667182066,5.209731052087811,3.088703245038767,-15.938506351761013,4.8794892506568495,0.6022647566751167,-6.046815667465236,7.673124541854615,6.173269753393413
5.315662759388284,25.79377286610147,-12.67731525370601,1.2294582753588834,10.077728900183033,4.8958810337554795,-28.76073136515914,7.479120342506725,-21.909440413024083,25.804216562034398,10.375546256968827,5.3912562411628455,-9.947944724400234,7.468692451263914,-0.9616655345694447,-2.8670832809304585,12.934799007553393,8.355204024013332
6.508789874611625,21.84186471209079,-17.377584990958955,-0.5371941656271044,14.081338307216086,5.788351859210456,-32.76714538902168,3.0114573510763876,-20.869547153155327,28.578846411409618,4.309230807306567,-1.5826546354451503,-11.087442682411162,10.156475216402661,-8.581140092550008,-0.37389031288373786,18.102116806943293,-1.5768251837617069
6.139436811863578,15.9365512451469,-14.368747891603288,-4.155514525836949,12.41861348190163,5.900924396202119,-33.06424313484567,-2.14111305396077,-19.050178361335107,18.169798324752996,7.128244414259395,-2.696138738107665,-12.227957830765137,10.013133583333833,-10.73255015536048,-3.9384439078356017,18.78058048347892,-6.630350993888074
1.9615412027037806,12.277051489332838,-15.565009039747451,-2.0082126994821454,10.460763352145863,2.401529561236879,-30.628679724773633,-0.9471739230106238,-24.459204693113193,15.768859124627543,5.746415057629516,-0.3906985363374182,-9.853783646075174,8.796534330578774,-13.568338065899539,-4.087973352931488,15.556234558807988,-8.856165588987121
5.401122903662661,9.886724013372728,-17.93893627914193,-0.6383721543615462,8.98908279247677,6.813785600675798,-25.265215603862522,-4.930279122014138,-21.764295047069037,13.758780509605401,3.0934400154155837,1.6226130055794594,-7.285254890781873,11.780222037464107,-11.522017478806845,-7.3655760005266,19.562156635757162,-10.891007333639536
3.2744498095071983,12.37884101617427,-12.212999178328683,-4.049976348186057,6.14810742594518,13.86417893792655,-22.442758323312212,-9.793428859635249,-17.4107925629595,15.655294752564405,5.6146951269233325,-4.4688820173619295,-9.893518338303357,19.452511115663086,-11.039004205097388,-10.743889391266407,24.157712676917733,-10.391069597062867
8.667720414256728,13.69855834119167,-13.52409953044922,-2.672584073438925,4.574628655661828,24.041002098324107,-22.356695624810826,-9.188811103477121,-7.785291395096655,12.473941572340234,3.2513980663507436,-1.7704530920343995,-9.279978864663544,26.344592873313992,-10.947410437653966,-9.047079545228057,22.799923372926962,-8.137593196976717
13.182428832961616,14.920046857617269,-14.938487146687404,0.36873846422605894,10.323458526567645,25.332356257988515,-19.147633505080808,-12.393852603004333,-3.9230450303913944,16.226672989941648,4.011448355028966,-2.782349306461896,-6.811814818091559,34.311988122839196,-9.098771076625392,-14.287073551581972,30.723482380555986,-5.497765170390022
17.40457967604185,12.039275023040389,-5.811415105054344,-5.570722108215014,14.996063284955634,22.91410420405709,-19.163393612674955,-9.74037893988349,-1.4293823918543112,16.952447659230877,6.4299446463055085,-3.8912924278692738,-3.4655730426358042,33.78426102753562,-6.957957514339619,-14.354335534037856,30.252421777149706,-2.6668794675104373
14.595845399072948,7.204649082282925,2.040585786869471,-3.693855343522472,16.736977514999076,18.641744867876827,-14.396107925760935,-11.287079684573985,-2.452699438299909,15.041942847883703,10.213878405685687,-2.655896890566508,-1.3896927201898857,28.57008505571259,-5.013263849386781,-12.471593713528064,27.14862805848442,-2.281673354977116
13.740792931199882,5.298992248198264,-1.4411735614442627,0.042194611799466486,12.909473637263606,17.5934818815475,-10.021701471144443,-8.244701105377143,4.726008455007289,10.495203020442668,5.597440241827712,-3.177845487524007,-0.48648446681334545,25.01723379068313,-3.264695589841656,-9.029500791672957,27.6622731499051,-5.61167556978598
16.10902600059358,1.5370117920888973,-6.490858707026895,-2.1752145760432704,9.568362713926245,10.88246128547977,-6.528525882515158,-7.449228503645705,7.411312291732436,-0.39872332479274064,3.4206038768217297,-1.453228334148571,-3.3926750818967983,21.95383366859168,-4.349017341777904,-7.7390716316074535,23.68783785521874,-7.383346112194465
12.227795152193876,-1.8352273027379002,0.17304561343723535,-3.8030385489406235,5.053494120211889,10.422926994035087,-4.209615453587441,-7.338082207974337,6.09157933780884,1.9894103671168892,0.7536016263037317,-2.072016417276088,-5.127687096082461,18.891614128481713,-3.0903746196712585,-6.744828959979728,22.549722555138704,-7.303689603267765
12.351212636287519,-5.989680444966787,7.515279433608242,1.6041082182312634,2.7829195200339516,15.433615907642622,3.8686701428555885,-6.54399877670664,4.966172258523665,6.136029716620804,5.701990404978348,-1.323272536961499,-3.1523860086942803,23.838526807385154,-0.8559816530152503,-4.288952351788346,27.958987842079168,-2.1499783559018595
10.033915305047053,-5.848207070338013,11.23896881092475,5.842949152197578,1.1941456511723976,18.49253778417262,8.038157250609988,-6.727105533979046,-1.5313190889872796,13.799011180361633,6.644463594062279,2.355470512396167,-5.474672723034123,28.9819682347671,0.9869471960148579,-3.4965075557114655,30.247580473669167,0.8511372026192197
12.697937247200132,-0.3366332653792128,10.56292029160737,-1.242948185571958,2.6309886987235425,11.884728333631212,5.4667158524104345,-0.17238764566767895,0.8572175391017041,20.095503071400387,2.8973814568834158,-2.1688259795273197,-3.8912627529321604,25.923387288138358,-0.10069545661364288,-2.1213838394360245,34.493762505728526,0.5277865894650509
16.827643766646883,0.09560233199078283,12.811534587991481,-8.42297219046905,3.382484822566611,9.868213958585862,-6.970755470791696,10.581106037803554,3.1473533056074583,21.31454478061764,4.128824710977282,-7.278914301039952,-1.7224844276949356,21.205865874306323,-2.0681033563835083,-0.554228742005968,32.39668211127639,4.204322744482205
12.071356444840108,0.5266426402609579,10.562895278815777,-5.833720651753417,0.32361650900172023,11.661728233461433,-3.59032298827052,8.833953300278113,0.6516009454433966,19.50698057636269,4.479293405241403,-7.310701214881217,-3.655873924076593,19.907618590715266,-1.5949197828414694,2.5721501707296213,34.30811233166755,1.236074427206466
15.226246688494431,-0.6060947882948042,7.430412101012372,-0.9948701202984864,-1.662699156011687,9.354988850598913,1.5452485936002365,12.555228553915168,-0.08688575029672307,20.62996255871378,7.464430670282065,-6.951813597782202,-5.687428039200219,15.58324550117032,2.8813724980911672,9.015576882095882,32.90377173756234,7.052986994405277
15.940632194802628,-1.3495127044201833,7.320469431955974,-3.574568432748519,3.8689786870616043,2.264385417991039,-1.0368898551824284,16.862093823344505,1.8108989561462323,19.214685478854463,5.173924084762661,-7.862488030169448,-1.7623305279737682,9.404649217904565,4.915355857090603,9.400893526246232,30.72280714794363,7.006421795709356
17.82788553546484,-1.1177210801113446,4.373678954864172,-6.932121812077217,2.953623163428448,-0.03963059695436044,2.6282719485817356,18.43423370849381,5.856753250084594,15.749464509356367,5.908646151733565,-13.363142313029403,-0.6697411558524202,9.477430739559509,4.702338814168804,10.466469825724989,33.62472504791883,6.467576841161394
17.177046795276834,-2.1569031221049517,7.281656854912789,-4.915126159159559,0.3764934832289617,0.9780667833720069,4.337439046296247,22.349897125267038,5.703011653101861,13.066398888874902,9.570903801926752,-10.953639974972997,-1.3353874531811236,6.524112178869092,9.371329251452552,13.481842461073285,29.304688772429227,9.342783948139527
22.484371592277483,-3.88116625545654,8.32952009830149,-0.2580326933024679,-3.8623804080046265,3.5596294640494235,7.80156253603624,24.312188534729724,4.474810160534306,11.55614268913611,13.230929601343387,-2.5871897091876623,-5.907701903849338,12.458944142351273,11.695647056191966,13.564110832164673,29.0910313069615,14.753145555561453
18.124651742261808,-1.700649153858369,5.75950882856117,7.332096355177395,-2.2433225476291483,5.068288839273678,8.528345094508506,24.516466981422788,7.641071147919138,6.238172648040079,15.716795559105497,-0.08043158291572183,1.4339076543431641,14.098136931488067,7.964290560824681,12.373443220965942,26.245400276388327,13.323540579309755
15.523871091752794,-1.7678404130651355,11.388290003375051,1.7416974671780503,-0.5281095812391197,1.9883557952729496,3.002068541668546,26.38079541485272,5.63142556399456,5.804047536911449,18.590990552322065,-3.1404455039794654,2.9157712254276476,8.316647021845549,8.431314734270288,11.17937718905582,21.451428155912538,12.964267791803001
17.41647263153382,-1.055399475555805,10.664941585398552,1.5257039372840429,-3.111309717917611,3.1090156325808214,2.4533351931766276,23.45980345929965,4.891374233820766,3.417743901452777,18.63077436165819,1.6118261817376265,-2.3409917042534945,5.2708825191108275,9.678690721077361,13.30226303124715,17.1505833838432,12.894086930608832
20.286802008499855,-1.0282401634410547,9.546667718342377,0.4339821395377861,-1.594327110499143,4.13331563418928,-2.200060855297462,23.468491441746416,0.44046282000456394,4.255138825095925,22.086207761247866,2.4574022966002964,-8.086246191401933,5.449134260236246,10.632175224658033,15.812355816687223,11.389732779167165,18.679510668249527
21.00983386736891,-4.518482907872853,9.5960749030399,-6.514051844613032,-4.766328055145174,4.572954114558319,0.467801645021229,19.6685124903482,-6.939955971494897,2.2614678214158737,19.093824635805692,5.158037532206913,-8.753461058510025,3.577885454731735,9.631578305587311,15.486937493012103,6.122049504312084,17.527396348499508
25.44505299916199,-13.381668899966776,3.1959426442748224,-10.333925997195104,-2.47087711740029,4.720890481050798,-8.293396040608886,19.188917139067797,-1.624552616415989,-9.887585625315197,15.024766602859975,1.4127723851577922,-9.127825179872094,-0.733494602993666,8.044099771272261,14.962754473739523,-1.0938947920821214,16.078491414791714
24.510308027785186,-14.922334126479495,6.850512753795698,-18.64298501654347,-4.864348646044217,11.120178688316908,-5.241142672483631,8.455313287747856,-4.902623103735613,-14.125326955358162,12.90638982964796,3.9170618680163702,-10.869479355967334,6.7730235185126,5.576757655918508,7.989698839107762,-2.64078437756919,16.969575775095088
21.330663193996298,-12.949170650366636,7.766705411758924,-22.06612770027938,-9.114637364503764,13.12610961268653,-8.246833899853947,11.979825739245548,-9.742718581408994,-13.186161572703167,12.152714457158279,4.858235952076706,-12.02522762809294,4.41742003485408,6.4288258578886115,8.923445822957241,-3.596812829902497,18.247515362982334
22.839832733894376,-14.688889350832902,5.6516318650289765,-20.994027736607006,-6.8231466010838435,12.887137284051564,-3.638413603879746,9.44967479867773,-13.507988362320852,-9.706838410359474,12.47073425500756,3.552640029170785,-14.255210066065253,4.895198885514809,9.81903335658877,11.416229701758013,-3.571343312550212,23.135036157163164
27.182332436566938,-19.65323746898828,3.044478073686646,-18.45411867098669,-5.1188601398251095,15.481447143194137,-1.1816816033519029,7.603272995632253,-11.70608461620795,-14.332042319220523,14.15338989422495,4.004191411497635,-16.7781228994198,7.620410586719763,12.52466546803555,13.417225240342493,-3.833923546517074,26.163325091319678
28.49870895158811,-33.01810893156737,6.097766553747924,-16.790230742432517,-11.716707961557146,13.877664074359808,-0.09540009512728886,6.635962458789248,-12.735481193385587,-21.299958993373615,14.466232617326098,4.357343400785645,-20.082212665235886,3.608539280065834,10.639403181030955,14.535788680630322,-11.025279877988197,22.937804081851468
23.175635203898874,-30.857388790000307,12.272481042534594,-14.146912243853278,-9.03826509097458,12.470367795597099,0.694643621666934,6.059479308685502,-12.88509221439277,-15.766605443425423,12.334995823044855,6.760517047370465,-18.40563024317144,3.2113009748179877,10.413332328288945,14.967222575063968,-11.766304785542335,24.39616010682129
15.314743893113272,-28.015082550254753,19.420236255765175,-13.160968403798984,-5.579722895256657,12.13845863742112,4.118160977799896,4.40898042348849,-18.79555236981144,-5.739910988049168,12.05658925261129,6.037803300092131,-18.486716991480613,3.4013006454007346,12.237074221686775,17.93421926786833,-8.889078416348195,27.315707707867364
15.072445968122755,-32.59680920734089,20.998048546742105,-3.2854104343208452,-10.032587934696917,10.342815305835183,15.25333534430126,3.3446685125086244,-25.876856420375667,1.3581404098448786,13.92395600036076,10.783034883392112,-19.739483532138088,1.2488004155599732,14.450437538130245,22.948476806416238,-8.253073613948064,31.3058358035735
10.241528308461938,-33.860241413778816,25.892857083277768,2.1006032002582673,-9.994294601731157,9.622518300085668,21.697616255100154,-0.8444312869648449,-15.476284807107234,-1.308489829153336,13.542468399567813,7.617053414931709,-16.98802651212889,-0.6094469480862941,15.002599924885843,23.076282201837202,-8.100462191763878,30.702415292757436
5.411907585674999,-36.68828770102991,29.710148179408534,4.364231860184251,-12.593825009864851,7.926733667149941,16.517288331803716,2.0957611276772337,-16.20746453662455,-1.4349242484815914,11.79101758624784,8.649371123116763,-14.919874185487345,-5.493811326128579,15.260759890698731,19.098883737699108,-11.45864788145122,28.82582915556604
4.001606146489806,-38.34655028589293,30.301535914752904,3.6030833283154964,-15.292044685337384,7.794540605337705,14.458656141659475,6.7940855527643125,-17.816242461003235,-5.75954572452258,9.45083786399787,13.684625425214548,-19.29678984627267,-6.568258076978548,14.931934347271817,24.688351190417237,-13.6400755478398,27.43393656567654
2.1043144550211466,-35.31936684711445,34.893777107476446,4.309362718962092,-10.471616349167695,2.389874657036506,13.86152554185238,9.14893051334738,-19.618924473057184,1.147568896990391,9.549292542565968,14.91015046786806,-13.02862554384075,-10.375863364206122,11.672327680590197,26.660875590536833,-12.398636118196823,27.308019384805988
1.3802128635644522,-32.196664852725235,34.01415464628375,9.2174348305214,-8.288911107790337,0.20893599818192676,15.409489788265795,7.109495176028272,-18.295058079262596,2.3916298280677557,12.769960229111827,15.548605509749992,-12.814811416330492,-10.471224273875254,11.341394500573891,26.383651044326974,-8.90624394081917,24.541788097438875
1.7316411755982095,-31.517556568180993,35.8660019751664,13.737332939905206,-12.161915679023624,0.9587276596009247,15.684518691826408,12.883006859261926,-14.332843343086772,6.0782278241883345,10.518935358497188,17.55309968291326,-16.409176072115883,-8.416872900739008,14.52507154002805,27.665314964499846,-3.0652652181138187,22.74859939425695
-0.6500560829772724,-27.227270457276845,32.83209818887093,19.62684240571846,-12.813110246929913,6.88535341957214,18.495256483396815,14.066940452726028,-11.44318654222852,13.183937702872779,7.3861085076922635,15.454754386022492,-17.56158089078204,-1.4784010489589967,18.098301537844833,27.576120510666577,4.733642708845219,23.002709009680057
-6.546145519887109,-26.16185401009799,33.99469546969635,18.780315791057838,-11.414352880439807,7.734725859435251,16.810339900228737,14.469953792096922,-11.481497783155628,13.942981983531848,4.543350656941485,13.062176873475643,-17.05324472179608,4.094087148946349,16.494583904691883,24.065240339482266,7.068462807357356,21.00719733512891
-6.581489771917738,-16.993012382913857,31.834229678203215,14.42040246244424,-2.7897482376067937,4.874028215561791,13.950127811771846,16.72880991359697,-12.103905342773528,20.367258380264488,2.5765877406434727,11.840189207706093,-11.856734795475214,6.152112449327101,15.182742909239412,23.28509714023394,18.099536249606995,17.933978656864245
-5.638982465613495,-20.912475540312283,25.764835712118057,12.992456150649554,-3.4434189959555592,6.506485151274946,1.9066829281092899,12.640260782437762,0.36175925391618335,5.014936763768003,-4.568979152796743,11.398116991979357,-4.022821145482782,-0.9684831952603279,-1.2671532967754011,23.86846750338458,14.681945145484294,-4.771895712650231
-9.968726445857207,-30.693568423964003,27.798496426938726,10.101820366695282,-6.441629920776435,7.065579627583638,-9.944852576765971,12.45836933982423,6.677004840801189,-15.219199767693773,-9.764352443365183,15.544569294095725,2.249255522349511,-16.388789363347165,-11.663383683187849,28.940383994048894,0.3313323719497845,-22.2076794738096
-10.097929179800385,-33.83609538592708,22.896000138791628,13.561055073933064,-8.659297377730615,0.6918210837321119,-13.108254446368374,20.38241673663853,11.724800740134771,-25.393523680023897,-9.200896053360584,15.392649640272184,0.41646827449708645,-29.56177944162056,-11.611358141826706,40.063355305218124,-16.944405397685806,-27.537307534192166
-9.346962807248392,-31.511941801283932,22.09275126537339,16.04576945140453,-8.924492285270219,-3.434989318371123,-3.4818949617068786,20.689503245452055,11.598918223877202,-26.972908509433786,-5.1247520425055875,17.77835843633305,-0.9272606418203804,-38.53430799365104,-7.751810762558817,52.0615060781288,-30.309266579356972,-19.784178398715003
-6.739259548059092,-27.04146076353428,17.576209873155406,19.997345634297638,-6.94420498953244,-13.029839676067986,4.6762002429046365,23.536028400819497,11.18232362789037,-22.9847523291783,-4.8602631192076,20.455527016380465,1.9291033961322643,-49.65413750574119,-0.37772203405930416,56.34094012178513,-37.41950780095362,-10.178907189346496
-10.57573751513479,-24.526264761054062,13.35042209722764,20.239860977339347,-11.702910934344498,-16.08085475032672,4.822968819583531,28.043065245947318,6.471127277960267,-18.116635461794008,-4.403472211471559,14.537261193708616,1.9542429015305878,-51.39766400200429,2.698282109223004,51.82740737210199,-41.888509965634384,-2.7254352724489443
-14.410996575945532,-26.017151258037014,9.02483529903736,23.02334739354321,-14.509034402805177,-24.795278985788926,4.087433877255489,29.327717646485915,14.164878645311894,-28.77506769058779,-8.344301370872767,14.574525274771785,5.202976795275028,-57.729953646591945,1.9644842409870904,44.67333074546726,-41.86082262261297,-9.63095311953801
-16.682524058196368,-27.90076636047213,5.380789278878085,22.488275996502754,-15.850827077459185,-27.25889510205055,0.711766031657227,24.948531168741212,17.271204985009994,-31.619859188797534,-12.776447165160107,10.410876225684996,9.038584278767416,-49.510098650971614,-2.774436598800232,25.796525991881737,-34.11378902760037,-17.125691180248506
-19.148170847802795,-23.92699481737379,5.543409185065835,23.90809927370291,-14.165727948802372,-19.85839378350945,-1.7883442517796375,26.038475490270898,12.372157461325056,-18.447770465209295,-10.180267603512812,2.632223401014125,7.8946114265388605,-35.820278082763856,3.6184645297856366,14.53321163260589,-18.256828951752247,-15.346188288494705
-15.557853475977968,-22.299064607700497,8.243221474022201,20.54436669866253,-14.531902215030094,-9.625159411079276,-5.366038049861299,23.32005087221524,16.46025285837601,-15.235771684322739,-13.153612910418001,2.8598018253957957,7.532901172100974,-22.12933459318585,5.1273142116365165,3.2660704056785583,-6.692528166831993,-17.671524135960897
-15.970331360475676,-20.57550779287621,6.155972359215987,23.627650983541912,-7.964800403131079,-4.762469241840488,-4.0641775591094245,23.336309797221173,14.398609289445613,-15.636121630274383,-10.75881560597272,5.234112136232147,9.808985773385826,-9.70682799881644,5.658418820613775,0.7842859979412609,5.75491874045791,-15.214812296346121
-15.112098950939746,-20.904768051977378,2.699759147791818,31.497702230214664,-7.74583773412586,0.9797450361519053,-2.6679744391367257,23.64579102608999,17.124959226999707,-15.937838679721706,-9.73425676931689,6.727730597152666,7.300911033938467,0.17768186215821302,6.969615300104085,-0.23648430723853409,13.03067502581997,-14.909718811871805
-16.88947845771761,-17.427352282299235,-1.7347110849100265,31.165971812571815,-3.913887254617,0.2771259044496597,-8.69705509883708,24.443790731522398,16.826746689520185,-14.28543888781545,-11.642454773477889,4.2155769594421955,11.629980873829577,-0.48374897496667835,1.7365716660223933,-0.7728292823856471,11.81431862389205,-17.049181897219835
-13.782836640027917,-13.268277466604127,-8.123939877844258,23.023020677301027,-3.890899772935051,2.0165007757396354,-12.28796620630134,19.773165948031636,16.726737897844423,-18.39389746976046,-14.33493131723858,3.850057582002992,7.073330696228384,-1.3394094237648142,0.1156923785500652,-0.23881290649825004,6.402729152355388,-16.945593461258103
-12.628228163511853,-13.994002171140062,-6.995050791901539,17.225183010391344,-4.64944795952585,2.096217711123126,-10.217978742735637,12.661284360956586,15.653098250760458,-15.177091631649098,-18.299964466422153,1.4318597311717616,3.0061337764329013,1.6146583590459151,-3.068882289587318,-1.661834476093869,7.147564068625002,-16.063781425724393
-8.347463467076594,-11.987188214513566,-5.379325653079558,14.55364922744087,-0.2323723787768479,3.055351206918928,-4.830852842381873,8.186324828834215,12.43399055238952,-10.689816304727394,-14.1623978510957,1.257895496227123,7.3386958804099365,1.4447451476034985,-6.352284666412833,3.7472944529722003,8.384609399453653,-16.845149444277855
-2.503079356472597,-9.786900655261277,-4.253266546304644,12.76221914532756,2.2313490861881666,-3.211717790706543,-5.013415177347925,11.914753617434855,15.85866443100021,-10.107947437803709,-14.324748408626638,4.793004002740795,7.570853615758802,1.6665196978099672,-10.61343171807334,7.297028140050545,2.7894675442068646,-13.820822499878963
-5.15383603659021,-5.635262348583133,-5.667610812768697,11.655504536225582,4.5972504622942205,-8.892396548446484,-8.71482345808942,10.85806515210336,16.64968484715687,-5.618882244006085,-17.41978891454169,1.5877816496951875,9.366781725856217,-0.8450758163322796,-13.215560585841,2.5419502841552664,0.12784338597703382,-10.994724603072674
-5.5573950412717,-4.5127786818173945,-6.204262429080082,9.573250552783627,1.6895082610132732,-3.049044484519017,-7.731795687148199,3.4537083223484863,16.27196536594442,-8.355620252759842,-14.267670075779165,-0.3498606367712229,9.406141272003014,-0.328245159786686,-15.23290130317151,0.5173816026254112,-2.2370932246489037,-11.589516034328309
-4.39737345190091,-1.1458908920643722,-10.843691076627763,9.054484729229976,4.83645680941801,-2.674134513839109,-6.75186947463366,3.373738431418225,16.09275893615812,-5.622673157630739,-18.14981992189253,0.3472634520206963,9.349136415713568,2.631054462886768,-15.59121233631162,2.3952127100496643,2.8235995483924823,-14.530914659006115
-6.45901336084766,0.3638180626849348,-14.01933052561709,5.313903720540804,5.248935656311399,-9.916162849162145,-6.4586129841478845,1.145325407702714,20.213732292424858,-2.2052889254477535,-27.89431798419636,-4.9147474860023905,9.00047255332192,-0.658726953839242,-15.462378842227409,-2.859881526576988,-0.7060228934033601,-15.131300071097973
-4.12502376295518,-2.9133406655730454,-13.582635447609832,5.7734214079204556,5.7590550763270905,-11.20072932289514,-7.144961309467754,-0.4971441777666321,22.482486458478384,-2.9863740834191366,-25.727424968144927,-8.616265875115909,11.778189710090768,-3.0685859212266453,-16.01828460021844,-5.775098922474587,0.8460458388354501,-18.761797178251324
0.16313923645410133,2.694761022476108,-10.705423650291928,-1.285965606284515,5.780904048443171,-13.168585742571969,-5.392853302917501,-0.18649290266655782,30.711676247269647,-4.352612619896844,-26.004795042478328,-9.48775758252616,15.533834915586503,-1.5711444833366217,-21.4582019143775,-5.471516417612321,2.8898127200829444,-26.6919038503296
-5.313465634403766,7.5200523518495395,-0.79770622204496,1.9093766713916303,5.705148523218432,-11.913447733281593,1.5321701238419436,1.6866166343497966,30.447988619607102,-0.44456138712029336,-26.480263474919894,-0.20490659076148932,18.21661108246372,1.1968259019056369,-21.430398350298574,-0.9725510859698439,-1.0202143382022255,-25.835428177177597
-8.835921845203194,5.410142106721345,1.7849042329890166,2.3708940415519955,8.36389748707218,-10.267414730706838,-0.8231920794264456,-1.8115473647393756,30.578307284419136,-5.324957147305049,-24.712346946059267,0.18901534501566108,19.240585321865154,3.868103873493326,-21.306036143695078,-6.340909739492034,-1.6066332558344651,-25.37214099741745
-7.279193807826008,4.568327681654569,-3.3481479599996824,-4.979690710905537,9.069613431626895,-10.183666241296704,-3.8650121609411165,-6.774708064173414,35.49725672062493,-5.614712640531495,-24.31433889447043,-16.60690998269012,21.828474663494283,0.6808692000817258,-22.647624142470942,-11.615492755918012,-3.8500739991445485,-28.622346720269515
-8.162939399140663,6.850154068970191,-6.431013394534272,-9.204785302904064,3.7207047501887507,-8.634836749954399,-6.1283752669055565,-10.663797423500387,32.80232688767476,-3.071691321241272,-26.360428366343346,-20.318791227691282,18.75361595589291,1.6938549496830158,-21.939467159334356,-20.21430843644218,-3.9419719009051004,-27.48039212499982
-5.1394171674572,11.865038842601233,-13.518396442952252,-12.550592172580195,5.30568378773111,-7.867078430483496,-11.031251415885546,-6.935780402306438,31.18507637441712,-2.871778578375962,-30.069304183862776,-17.58736055256106,16.266112165177432,5.4421802121090295,-21.13470188594456,-21.102016952315683,-4.909806075638206,-26.243154947952217
-10.611171521831931,15.218432735014531,-19.33670348183109,-9.938982968945503,7.7698029575453,-12.665644419724428,-5.487450406822747,-9.653405388817628,27.22750073401322,-1.2063487754447149,-34.073705560063644,-16.615871636095108,20.616064204862052,5.48041865007831,-22.38177890934992,-23.751401203439777,2.1331866933027364,-33.309135969833676
-11.785049654159723,16.617411969972657,-21.93270389858592,-9.573281641715365,6.4255223996525705,-10.53036756945297,-4.04792036154132,-8.074354950629738,26.59376208323338,-4.423182356237953,-30.95158865009484,-17.89261430138724,20.3775199438938,9.132884568336754,-20.01652800931818,-25.72099698491408,6.05393093389418,-30.806901837703915
-6.707907636747187,17.526892402892493,-23.357134261046905,-14.383293737634322,2.6400814781667727,-9.273890402047083,-11.693148733140882,-1.6127167215482778,27.135400054276722,-8.420682714694573,-27.05064780490862,-18.585512767209856,17.796608768514545,5.852525072102068,-20.386679399973477,-23.202128819243246,5.387465492852141,-33.87333334076488
-3.583006229610168,13.845298917184348,-26.637308365611283,-12.94313649262828,2.5659481314890495,-9.872813356335637,-13.969730554843391,-0.3272720211169666,25.72737360659241,-2.9448168008987494,-30.671729026698678,-21.428979949662924,19.904687211092448,1.2058136001025632,-21.246080558602593,-21.468288053430392,4.430633935511187,-32.93790100646758
-6.121349849835131,13.971247260105734,-30.405941526698562,-9.35450724184718,1.124949462685636,-2.854358409158488,-15.565175799456695,-1.1906649210282314,20.123558097569962,-0.7887794634132552,-27.556737212963657,-23.688592779472952,17.619582546100883,6.716344916222566,-19.176684478881967,-23.644492650430685,4.843518900108366,-25.949719371449845
-5.436094131869072,8.236671292890243,-25.873760634777746,-7.621444927601633,-4.710275627651748,-4.1367597150631585,-12.963742147345691,1.4612196390846997,19.7967544516848,-0.09710579749992565,-25.81119664575868,-24.58308040979138,11.527236176630106,8.126069531686623,-15.54567182650678,-24.457191732817712,4.965837924085481,-25.01827334306501
-6.898424458835308,11.192624387623649,-25.931510725788453,-8.232309127172154,-2.537166067985315,-4.149581004351001,-14.856902685074203,0.4016752483019026,15.37181651604495,1.180983271744414,-23.18890807680942,-23.23351163516147,11.198099447206591,6.118571311395382,-15.235900328881497,-23.22274493886142,0.988836334093282,-21.744920488823222
-5.527805441890306,17.760954024440835,-28.918933403619924,-11.773116372845763,-3.879307917415511,-3.771763965804098,-16.947648962260622,-0.1700486023517911,14.368383974941011,10.46744117382468,-26.13520809222276,-27.159518250469677,12.237564708473636,4.697796367064081,-18.833285579565885,-22.870844943836683,-0.935152967491657,-18.082736965056
-3.179743180270476,23.351796182313976,-25.363150929647425,-15.607176924124907,-0.8263977700685716,-2.7103571827511628,-21.384381295082818,-0.058669383146559895,18.93491762606631,13.406543891507376,-23.810010278887198,-29.329726090429308,15.524540124895392,1.9105677150541809,-16.47436342885498,-25.940550042177062,-2.3687604576811916,-14.51993101026557
2.4895393775629975,16.8322179742055,-25.51814896774665,-14.558698887791692,1.1527565316128885,0.3041683732292704,-23.674771606977913,-6.5885500919024125,13.641481894775776,13.025643714669455,-19.045308897296234,-28.37690721593524,12.465130916911844,-0.3876407374629929,-19.09676685121282,-21.787120122308114,-8.780928117131365,-7.6383994964674
0.7376824315378303,17.440843348311887,-25.184567567398766,-11.948112795244603,2.2534951968133807,2.3420591008343523,-24.50235000865387,-9.798633180112304,5.617076066285485,20.55534162720847,-16.91922333937395,-28.207348936932455,10.8719405036531,0.24459035610433588,-18.497210255230506,-22.324749495679885,-8.84346851060245,-3.1022074263349175
-0.7203606035076016,20.29483402339045,-16.94034131708105,-17.4436012640048,-0.2585746732274147,2.1337431628464447,-23.18343623646942,-7.540479690584746,1.6977231315425279,31.600998675797527,-15.869143834817827,-32.23904713374638,11.135581917832205,1.07281908728203,-17.214757996739795,-23.842390445844742,-5.583883881974845,3.580986812585593
