Fp1||F7,F7||T7,T7||P7,P7||O1,Fp2||F8,F8||T8,T8||P8,P8||O2,Fp1||F3,F3||C3,C3||P3,P3||O1,Fp2||F4,F4||C4,C4||P4,P4||O2,Fz||Cz,Cz||Pz
13.619149683532157,6.168357631458839,3.3610591115913344,-6.34860129117871,7.554113462119673,1.210842096053451,3.5485451730992867,6.534855353795123,9.571882555057059,14.31069521901646,-0.2503674578141617,-6.832245181010951,7.8281279440892035,3.4445763189706664,4.633296399769037,2.9423554223043493,5.479559105515346,5.167324104710207
33.55639963117885,6.3027116279014805,18.902635245039637,-24.525548107492824,19.001894963850873,6.3105609204356945,5.7660576189760855,-2.708283129449936,34.16023945074833,13.155893564510016,-1.8230602634502557,-11.25687435533496,31.239626876732515,-3.46855852970027,9.121664570204587,-8.522502543367393,-3.77047098897184,4.497524890169826
22.350813409049323,5.8544544490902375,16.279775265132564,-19.071323522021785,14.442167352580782,9.753179699964367,11.011656742945576,-17.811364943191556,21.061535019587907,11.5166943989903,0.021912918499008338,-7.186422735979664,22.139483498463044,-4.5202112592471275,10.583698023258002,-10.807331410126883,-2.374051483670547,5.586917612127916
23.85118277212554,9.90206018017426,20.590565322356724,-15.767697676170403,16.043754828079734,3.43323784040966,12.449318405612297,-4.594178945938656,23.597418711240977,14.764460234052372,2.354819487501559,-2.140587834460158,17.63809767105161,-2.933002013942102,19.078251217877643,-6.451214746785003,-2.440639570760717,8.533233106865016
15.79200479387567,23.52400137330479,34.178837780979514,-15.200742087681437,4.275623494698721,30.12495607914741,6.661038991809147,21.122722965247046,30.733085430256338,23.582979752185466,7.714760460881079,-3.73672378299414,25.255570302928398,3.3439662872580236,21.90992466042089,11.674880280325537,4.135458905716732,9.72320732858853
32.451602993654845,8.145738947107603,23.645691717438375,-24.108964084656442,22.20534733010932,17.854709064327793,2.729005223295944,10.119841686603237,24.109395259763417,18.929175628569325,4.089833741050748,-6.994335055987172,20.968548081225237,0.9316669640882589,23.37576502760936,7.632923231435527,1.1431598535100402,14.43042974519324
54.787169198659285,13.572986598504642,16.92128656015608,-18.175707666013718,54.79414087723114,12.033473522426565,3.778281254255963,10.542444961908839,36.539859292870815,27.854421191453376,7.984197513078756,-5.272743306242838,35.734980774475915,3.4046087177639492,30.800208216869045,11.20854290672745,2.3523043562262007,21.971366756851513
66.09967494712949,30.821496160601598,20.353420658860202,-20.448318690352135,65.81148452423345,20.18102129863809,16.54726718825679,5.69106102174323,59.04047051474281,34.83131218717368,9.143789323471621,-6.189298949293099,53.344124592222656,10.958188876286304,33.53866511133966,10.38985545302885,8.837226139748731,23.84986455557449
93.3430950992131,37.52790651784185,16.363745473644787,-22.528348445498136,86.89898302525974,18.078356850758286,9.004239842723631,-6.094489970773469,78.72090647787147,50.30940017388684,7.080320890826858,-11.404228897525565,66.08145361533464,15.486895804927798,35.98583764720812,-9.66709731950407,16.398739730478614,28.659872786211213
96.86881876377029,47.55987535150364,15.499341025945895,-28.224563356628153,103.99441324355377,18.61642391604877,5.368333890412224,-0.6927444907300639,83.4721003395098,58.17532814954396,7.45794172097611,-17.40189842557807,77.95136478020514,17.283782394518585,34.04020334703371,-1.9889239624816355,22.8884708745994,29.663074750319357
112.90829171973486,52.12846159705254,17.369619804038848,-29.236167562454753,107.52780212217839,28.24075328214593,9.643531319056668,2.267093384575803,101.5176251412707,67.70674813671957,1.878086900188969,-17.932254619945528,92.07932897174757,22.891995705113555,29.0690720734598,3.6387833576201305,31.138588653272187,29.203322376111892
106.01217064371394,64.02708149630152,8.400198704652524,-30.543815227283265,104.43332827884126,22.83000084979086,11.8687567906924,14.113323196914262,106.68568541375974,64.45047773417191,0.10653134449400264,-23.347058875176668,97.13746472927069,21.276288301953677,29.861740753177713,4.9699153318145255,32.75062053416118,25.132210280273558
101.66953381721936,56.2047898293552,15.64231381777596,-36.7375268033401,93.63722880985526,22.404118720727563,10.188526905426688,15.70502957508568,101.80882681329292,61.297498063233405,-0.9817715597971184,-25.345442655852455,88.14563649817107,19.85872430043472,25.871272507219903,8.05927070524121,28.115289019436016,22.332689051611286
106.52150705458554,56.10365667952987,6.966609976204442,-28.578831285607382,97.30827573567369,23.54519890831983,10.071688274743382,12.413389949501926,108.17689976598845,60.591750461227306,1.0546229355107326,-28.81033073814568,96.55003821375595,22.741003253252885,22.566598516287037,1.4809128849088564,37.83846716760411,17.09382678209134
98.10720063281728,51.12607478207942,6.98287827462628,-22.96261855202924,94.352854589621,20.49154509940164,14.838616724674708,2.968855466411013,100.10637317607085,59.4036543300839,-1.6945606965349662,-24.561931672255707,92.27247958301658,23.770760543256007,17.799344848405784,-1.1907130946096989,34.0877872081673,16.447041573058275
95.56791281937275,52.40526365046324,11.589533424835109,-39.322876657534444,89.65430182117181,26.817690862022516,8.864085990929956,-1.1049587034166723,99.47302650434885,55.78020239993703,-6.983192823274108,-28.03020284400269,97.48165300777106,20.408966430569365,13.425103482291584,-7.084602949969524,35.2229906755323,10.724276519705281
92.16563112581365,51.64054826264174,4.184798597611024,-28.63551466151923,80.869272814475,20.94138054987753,8.554608072848765,15.035925865027268,98.85530792564985,48.549645156744056,-5.826759551913147,-22.22273020605898,94.11125335501086,11.679113461850433,14.22919711747538,5.381623367841527,32.161992291042694,6.175684884952863
90.24450298882103,54.39864828776629,9.085489259400479,-28.303538403095963,80.40073310556957,21.71066007671661,10.68748870386157,7.152554926929753,95.90985852670043,48.94276183936972,-5.354273917213902,-14.073244316087468,94.75949700019548,10.179118464128539,12.301440707767561,2.711380640930526,30.764339137506223,4.363846900885198
88.24235606399637,52.76951069812434,5.392886352335028,-33.83477988039556,72.42855242657696,20.629405171942608,2.9578632926768784,-9.227488657414671,90.24646431251907,40.26021369473449,-3.3196057014137277,-14.617099071900258,83.9968197270068,10.830845661122035,1.489486960856838,-9.52882011526419,25.268305303077245,2.749716182736204
80.49538249813216,47.14398568241414,10.392446356963944,-28.627507921461262,82.83244636868724,24.43609599804241,10.561438977728525,-13.986708073913814,81.67021659607175,41.936021452478585,-1.8712227911021042,-12.330708641517372,96.00377988150198,8.165526641747851,6.403175121383864,-6.729208374154313,22.412353664208325,5.727944339399997
75.2071628869235,40.061388890726846,9.630859338600771,-17.467032987085705,69.619991687373,24.73225988911119,-1.9515342024002624,3.4219351528309288,73.89250585625635,32.387950569051554,8.65899368753947,-7.507071983797492,76.87364454023395,7.749715922842246,10.538434192725273,0.6608578710438924,21.31764139211589,9.48993122790921
77.0655883212142,38.74860256288781,10.72546375132756,-23.205343947687137,64.0420605609729,22.39690631215435,-2.5493082353736423,1.0056155254678387,73.945075049178,33.10082545042567,6.3957127482538825,-10.10730256022797,65.96281273159654,12.122576337829567,5.399126192453625,1.4107589012678579,20.519377223586652,11.008337023311405
73.86374979681,35.39321191532415,15.43413274772921,-12.052936824461657,67.07561581784559,25.24274103539911,7.303259573736339,-1.1181694770854884,69.03513496539702,33.03943855632766,13.897875374102497,-3.33429126053554,69.32638401801182,13.569206237164636,11.493460249311312,4.114396445329712,18.650425627902184,16.923936549819338
68.33636132566112,34.78064550452921,18.48338128893604,-19.55729952084017,82.62734237362409,26.53146323458547,7.879314077079834,-5.293202334527489,62.09278142745872,28.297592876146684,14.563668961039122,-2.9109546664655515,89.1131380971963,11.894348166467339,13.0986221592518,-2.3611910722357035,14.245991317224693,18.74055326604404
66.14785774118218,33.590734230282024,16.9435091923486,-14.663337505783456,54.15377368634659,25.57954860439868,-1.602398709615203,-5.9529882768838736,64.83729554287522,25.613780560744914,13.861930389297823,-2.294242834992989,53.544934958335546,13.152838219994228,12.851451093804958,-7.37128896797465,11.505425909780648,16.751205582191524
63.19688833848762,31.530693632099467,12.377071412261142,-18.465185783050355,60.85569151579692,16.625266930177293,3.2725637760415807,-10.226538429132841,57.93278554532228,22.937292628451694,12.476267492053637,-4.706878066131286,54.81096971194757,14.512656297056461,11.923918324908923,-10.720560541119923,10.62411165494679,14.178642438195157
58.60479618632395,26.15926359007823,17.381946630221854,-19.536948154913517,53.02564998241797,26.329254254163764,2.7773451595606122,-6.7855506831608166,55.44229511838415,22.0260674428769,13.141100874867995,-8.000405184517351,52.871846615643776,13.825384616370448,11.976282003281804,-3.3268145224081187,10.723193639515497,14.34326882975668
56.57111507760519,28.902577643055217,9.692199394308819,-16.804445110956916,55.85967908624639,24.808311567113634,6.482410729720784,-0.02461872397414977,56.09659091194108,22.196595349618555,6.969580308907169,-6.901319566550718,54.66153210979655,10.016838660245265,18.37979256132136,4.067619327646325,5.552639226436678,12.459895630302986
61.29536694382343,27.065302016715705,2.7846262473067602,-21.986657303262817,46.896820694667596,28.371347397512427,-1.5304447630031444,-8.303392686304381,57.45453472095818,21.105180608197003,3.8251419295234568,-13.226219354189308,47.582433676388916,7.286349987080121,15.411626698977196,-4.8460797196742735,6.538464734796625,11.262978010122186
52.46496899499488,26.018779312038653,3.1046655564680288,-11.743432854088272,53.579210815295376,20.709581487847714,6.668898409149019,-0.9573367454529285,53.656955333481086,22.4629028787973,2.633555251755307,-8.908432454711836,57.807070607121176,8.07540893058239,11.763394272635514,2.354480156396298,5.868109676539188,11.143183682279734
53.12736304375292,29.083533991247887,3.620986677011711,-18.790158885144628,54.91073516196113,18.717861621943268,-1.9278702000705943,0.43119437728406673,58.27855960664496,20.215063340361436,0.9533817233539632,-12.405279843581688,54.86646180451944,5.255045380167075,14.271206185181876,-2.2607924088574225,7.2526249110809164,9.36613098422025
57.22797226238244,22.392322616825723,5.114877316394476,-14.415500114142421,50.89168229066676,18.00164460653474,-0.6601821211342189,-9.31365325001309,60.47960704013066,23.443908451339055,1.226070114178249,-14.829913524274897,50.382100990674374,8.395760871711797,10.044307931216675,-9.902678267658503,6.981071070708854,11.693659959557788
54.41526713032327,23.133057446519974,9.7348327000827,-25.377713788278164,47.479451526836726,17.6820622504534,-2.7118271515398806,-8.511854557987652,61.92053545684392,18.379769065740646,-3.3844157828055303,-15.010445251216414,46.20969663355531,5.876325408722207,10.80169361370787,-8.94988358833538,9.252783776149954,9.531921173245006
54.55285817326083,22.41902842419722,5.17600168497046,-27.750686144320007,46.236832430624865,18.052135589561114,-2.809282474118495,-5.073679260082317,63.480508264909304,10.589204207847548,-2.8193227728896764,-16.853187561841914,48.20891325820362,9.611022442510276,6.777652594778475,-8.191582009622437,8.110691726175979,7.959147141393157
53.343971410493296,20.250374126998715,3.3526518715042846,-29.933011521894514,48.531287554007726,19.30722425726573,-4.077591176647012,-14.526700306365353,65.06209891138349,7.689581106714037,-8.406942372696928,-17.330751758380195,52.278314569628165,8.271591343823694,0.41368984234541983,-11.729375427653975,5.703314120514385,3.1667143713726524
48.64029094634032,15.94362321420958,-3.547813440330893,-26.358223537951105,47.331702210930565,18.22466331608895,-12.864502006423901,-16.26512628805837,66.56786823115792,-1.4520234106856407,-13.506541513364011,-16.931426124919895,59.004024447191235,4.5924841356758765,-10.633920853403136,-16.535850497047058,3.202590845581595,-8.556344531311346
45.61781919748011,17.311521987488085,-1.6579734126017485,-33.72581668430658,42.54064963134407,19.199087893647484,-20.185498726713988,-18.88282957928192,65.5565786450132,-8.729961960168751,-13.137568288684983,-16.143497308177363,55.0070985626039,-1.2309503288111756,-14.450877551267162,-16.653861463652728,-2.5164806700455493,-8.94800705655387
40.663349781333984,16.54157256805664,-0.15763463299318303,-28.98858135167795,41.18970640398971,15.101516119774999,-15.395883720622152,-17.30159840768647,63.88392046459696,-5.062013959782739,-12.28055984893479,-18.482640291236013,53.276171053286404,1.9343017756274943,-12.990279317616139,-18.626453115966846,-4.129526673352501,-7.481050504754954
37.68331014121353,17.930831091579154,-6.664080579828854,-19.86149222852512,40.544663404879756,13.451623492078358,-15.488100019741946,-13.474577758836569,59.69457719084235,-6.56165994049023,-13.279293907371,-10.765054918616958,52.93246559312095,-2.122914884235776,-11.916221252115797,-13.859720338517253,-7.105339218153901,-10.503206088242056
31.501945754526773,13.080841712085192,-2.7199788275932573,-30.85665148614447,36.992380131989115,13.468173955447899,-20.266828570719493,-16.67924259523281,49.473038060797236,-8.443628154999764,-17.989259010437806,-12.033993742558597,52.022959370615894,-10.472840489855678,-14.841987822164878,-13.193648137240341,-13.69000676080729,-13.229224226786709
29.15070752383307,15.663792094250844,-5.806046016055033,-19.883578731105423,38.05268673348762,6.069019917640709,-14.985747212926306,-25.548373673020343,43.66883648728873,-2.895260978863895,-11.175838704215046,-10.472861933358242,48.20398730164316,-11.298862781494755,-15.322118176950305,-17.99542057814827,-20.17249741585109,-7.748809227863951
30.824992498627772,15.230402334093217,2.3397334299446797,-25.712398651645383,39.52647281512666,3.2660820496344805,-14.684144699125067,-27.97239980783231,41.989141833738444,1.7825680652399356,-13.249491202504052,-7.839489085524818,41.86628975712086,-9.483844971460918,-11.989355877339655,-20.2570785506504,-16.29871249660596,-5.3902417694927465
23.731706302736022,16.37067876440756,5.115561197621169,-22.170835032535518,34.5778572815056,13.360283311324332,-30.69031582920359,-1.3923711053257062,35.84020295877432,-0.46489050461074655,-7.60839071969816,-4.7198105023059505,41.213215104489855,-13.816961784383896,-7.382756025581317,-4.158043636359907,-19.354037807897246,-4.395666907465326
26.816508180726167,12.932270571189761,-1.5801709293398467,-25.470067215168697,32.67978993967678,8.9098102088482,-24.038819409198517,-5.281838887214043,33.034756522462295,-0.5554403901820315,-12.905155172595475,-6.8756203523462744,31.400873888416086,-11.895660242151367,-4.627322114827614,-2.6089496794625346,-16.44761921178008,-3.6908354299442774
23.575285851417256,17.122476371431826,-12.180955517768624,-12.465201653998104,38.71529513421926,10.715769338634274,-14.554173996011798,-19.620953519988824,31.71741042928258,3.561753516223135,-11.36606492012232,-7.861493974369139,36.550803893004684,-2.255056172623849,-4.113642881094696,-14.926167882572898,-8.360687941485526,-0.44366035038438234
29.340338538449792,12.925502186626247,-5.788020539926597,-2.7854314308934995,33.641239232412545,9.012391121932055,-3.21295450140044,-7.592733605264462,33.06015011434659,3.9764329684559563,-3.479397245133076,0.1352029165189812,34.201789862804574,0.7491787780405925,2.556887566869122,-5.659913960176003,-9.644218336824265,2.416137104411547
27.60753048034281,13.232239447012272,1.9734106292379634,-10.005166247492323,32.69234378739307,11.514637981872752,-7.788867361446095,-4.451609529606148,30.031698503112878,8.59888980429503,-4.089116755145265,-1.7334572432289885,33.43605570450616,0.14444878536211014,2.0051970644995265,-3.61919667629726,-2.133843536507774,1.9588341645403835
26.482464817075105,10.034817546962387,2.7047868097276577,-16.93662423495354,28.544380825393645,7.480156003310235,-14.023880489191546,-11.955406400150682,26.733748641698142,5.71020631676744,-3.8200680356949412,-6.338441984025813,29.07778446006214,-4.069233850769475,-2.4483150140426666,-12.514985656032874,-9.560368945089255,3.2626412102872395
30.84802774274283,8.997443883337318,9.589916831492433,-20.3570770047952,29.888980256079464,12.045888988980124,-9.417801387031915,-14.088240234846111,29.123478473376544,7.810580619247165,-1.0120566853487882,-6.843690954564215,29.037285651215576,2.2685135496329627,1.5989184930310785,-14.475890070843894,-0.7709517580096836,7.011168776635865
32.69627233011009,9.143593938495389,5.148078574661673,-16.848477398513133,24.616661902709588,17.008577464821315,-6.666134806398955,-17.197849189479424,31.634440535831388,6.69676622567091,-2.4034535072416063,-5.788285809573413,24.916015610416707,4.899669337217228,4.771786631083216,-16.826216207211687,2.945042621782185,7.8332459736269495
24.507529034171206,5.0044815975917345,4.027945894086004,0.5229036042306099,22.883898972445692,13.18838120941313,-2.5461741777620506,5.3763450687737535,26.94233607770071,6.568046003184975,0.8926095538381342,-0.340131504711211,21.10858416151266,10.464966294508853,10.293024837941411,-2.964124221240642,2.9548427456362942,11.002394053750326
32.25872197004265,5.17402981123886,6.034215628985707,-2.8137413946507728,28.499400270858253,13.769079187463452,2.8444235516403156,5.78206543374243,25.301247715079512,11.23306826106186,0.4775809729453613,3.6413290664624824,19.470489543309995,13.007286759839673,13.670404975565896,4.746787164839481,6.680455290236262,13.881855790578978
28.70329578708421,7.406146898100644,6.479328075365734,0.7787637369474041,26.32626180496299,15.820919978384872,6.282953366398633,0.8164590216451142,26.515868126971277,8.972897077886202,4.261752240798635,3.6170170517743188,18.34154113899372,13.405552907753638,15.196926049597039,2.3025740748966115,6.895224143072767,10.709824752442996
29.564089829514565,7.5992386771418055,6.24221423922246,-5.399015910470691,16.559833658500693,18.95325018924217,9.429596842189166,6.397753500922164,22.48060142026928,6.4282481801999545,1.5027868821439405,7.5948903527270755,14.79198763496693,11.855080753068894,15.458558146779055,9.234807655887565,9.458628597610295,9.201261135175722
23.805711807503663,3.214229413337037,3.272072464595883,-3.378014596628237,11.016725958655158,16.622975632082532,8.085070698808254,2.9944170465389117,22.375260212706436,2.720187858036347,-1.3538889249401316,3.1724399429374976,8.431169026206163,12.750467155081537,16.9944240038504,0.5431291507938889,7.729955433877407,6.817060919969757
24.80719376648608,3.333309094194263,2.6471156892527814,-2.2403577806866615,7.060192355884112,12.931692680978898,12.112805757998082,1.153501937413746,22.19585084211228,1.5596927962059155,4.09030617802971,0.7014109528300985,3.2630138225508603,17.068286086736883,15.702917865014733,-2.776025042181639,5.908498810171807,6.682267529938542
22.90033052227224,2.1946858956079183,7.297086154019175,-7.259516319449062,9.963752616509552,10.125497591001022,13.70018136954269,-5.765701705760079,21.161073847500987,-1.7408293087863207,2.8937540230696035,2.818587690597326,7.295408234744869,16.70293970943772,13.341896212793928,-9.31651428583853,6.045080824795313,5.281196588552421
18.085022755803394,0.28665809633092465,-1.8212658219077884,-1.1500204435505772,7.031891589541573,9.669221699869563,4.546287649022538,8.311439256008178,12.630154278842781,-3.0797774281456896,2.6737747704348367,3.176242965475092,6.856210666631142,13.607575446183894,11.766871096345026,-2.6718170148746454,4.233399652459716,6.324835036965032
16.708914001891372,-3.660320568253212,9.081647129770577,-13.404455339773229,4.221711864516095,9.70733024740088,2.6201462514381277,-4.662666766110581,12.130613264202893,-11.344033195379168,4.113989376601365,3.8252157781411604,7.414187243468376,14.715883503569186,2.1886587159406687,-12.432207865891435,1.9383274036359452,-0.733861677497476
15.646836904928193,-5.153994869945507,4.458416537941565,-16.87391442881301,-0.908260139433196,9.360863007158446,1.2810277364884333,5.508075222206447,11.068499335258522,-12.666227959495039,-1.5747816588274803,1.2498544271054879,7.3090798662705225,11.23865597491649,-0.35343830549543576,-2.95259170943049,-1.328420381459594,-5.15255217058888
14.215057678260237,0.00491206907059194,-11.101035186229765,-14.29275721471322,2.38428650602728,5.309413449343619,10.001729185580396,-13.032578260335962,11.787517291856034,-19.448928279896066,-4.626746882179132,1.1143352165366043,14.93936862945656,6.398585055471644,-8.945548671799198,-7.729554132674036,-6.543418625585218,-6.4429591650920415
12.022805987322073,-0.5861437819938544,-2.2445977759210054,-22.360397731002546,1.3061370560194803,12.103938759469145,-1.6869686577694645,-13.115922258756257,8.428111292323763,-16.457563316985034,-2.5027872909726945,-2.636093986032499,10.089806880808041,8.105932550586115,-2.5912519397838647,-16.9973025928091,-3.550261632473916,-4.995726416595199
8.288670938231391,-0.7747408681195296,-1.9805793227462072,-10.216928345101167,-5.021689126878599,5.915901590079258,4.985052068269052,8.48076502028658,2.650361175852211,-10.137583552426534,0.5978323580541853,2.205812420712716,0.6705683991090581,5.813645483777002,-0.8220919801356086,8.697907648842746,-5.728060830963061,-2.764022874254575
11.313402043827068,-2.0257663616578867,-0.4455402322594759,-2.960324400880385,2.053365268661082,10.476081456497251,5.408035217087106,9.667013810777302,9.493447033032979,-12.891564580246659,2.8196333727280756,6.460255223442154,12.951473539373282,5.088196128764716,1.537793439845025,8.02703264487526,-5.166542046872788,-2.4822807404930227
7.913036735387735,-6.194743348281577,1.9698961661417052,-7.3289040716255265,-3.1527664376584568,6.936480664080104,9.738379455834767,3.528977353633998,5.714704836409425,-15.637382084526784,-0.3296216311119038,6.611584360777844,3.670023268920872,3.195146999216794,3.316511295954381,6.869389471632532,-10.068959972834117,-0.4395226825078513
9.415696145515426,2.8318243625732684,-10.261843362571792,5.486433803292041,-11.36268981478726,23.32481435275487,14.558056880323935,12.039663034563873,13.482309905024977,-6.851471126175948,-0.9396367577532194,1.7809089276382668,17.35801869382918,3.357180934798963,6.662529584496205,11.182115239563942,-3.6381895676719207,1.899367108697673
13.282093413183965,-1.5090043455251632,-10.773161693175947,5.504832641691028,7.990367169988616,1.4370107672243506,3.948848141628363,10.979966910668843,8.186370380485158,-5.674800012464043,-1.354178553232348,5.347368201309031,5.18645326583048,-0.38284859350476985,3.3725937068027374,16.179994610213473,-3.1596588395980483,3.5577918634533567
12.383019178678055,2.1697749954292505,0.7289215472738135,-2.586064671675267,7.249317058720649,-5.405864880000685,10.333114539565402,2.010085899557242,7.014497701886455,-1.8533600765527183,-1.670885276924715,9.205398701219433,-2.6685757061652,4.475223003552681,1.5522895317992784,10.827715788486671,-3.750490526760977,6.098254793383541
9.355029568028932,12.305593139486074,-5.8341705637286445,2.600859926331708,18.4457788161941,-3.9422597485919617,3.82757843439426,2.1224818128245158,11.91968653573197,2.8549525368140216,-1.792079453955317,5.444752451448656,-0.34775595469977816,8.55622478440065,3.6430518702890815,8.602058614660997,3.866789195835352,6.688659558970853
9.959720050045036,11.905953160158134,1.4716499488563985,-1.7862302719988854,19.997262649984584,-12.922525137035755,3.4754892558507544,2.7232882079780047,7.960133366607579,8.35242052282298,-4.842788789830067,10.081327787380012,0.1368507649055033,-2.3002451701566695,4.469009678518585,10.967899703339512,1.3325119484048527,4.254747916513914
15.564079634580992,18.646851185428993,-12.315081005055212,9.253122103447726,18.6420140986329,-2.268144291343283,-1.0748840958350336,7.81648675398589,13.299999623332049,12.490511323137351,-4.8658709231228965,10.22433189497431,10.796979364099151,-2.0196015232842353,2.7605994016194018,11.577495222834829,4.955505352303472,2.605147421855861
18.15994631688241,14.070914842827126,-3.931977714516801,0.5622078050462314,18.383852782387343,-3.5226364184739793,4.336819300183633,-2.4224298684546297,6.356737712510991,14.683213543551123,-4.791037621811823,12.612177615905367,2.2374756982841575,-1.8325173220733255,11.89691639668611,4.473731022573483,0.4777226147727287,7.794612467067393
16.47753439461126,17.70962807335161,-4.629510225857157,2.8056356450387696,24.984428568399792,-3.4046198527488656,-1.285826845309499,5.9914454162805235,9.493774496851536,16.590641169135296,-2.274482474748118,8.553354695820794,2.9742184588224774,-0.07884553564364083,9.514321029883016,13.875733333387648,11.337002884004507,5.858059550303588
12.469756020079672,12.179844496772162,8.444239437908777,-2.571485488893334,20.08392055695687,-4.84389956158671,-1.9269660744089308,8.546032892615672,4.253593036068338,8.935238682123266,-2.296729382095367,19.6302521296844,0.21385536364361002,-5.254845697566658,7.722353846367763,19.177724300959262,6.9664532575125016,1.678347873664376
13.948980384654206,15.743488390017106,-1.2347167475146557,6.013285493165885,23.506675417560572,0.7533311340740987,-2.0788681290913837,7.585130909501139,10.362844542581541,13.885240321710947,-3.7835221696913397,14.006474825633099,8.800167867864403,-1.0517129061700814,5.739731614755397,16.27808275542134,9.729674234022504,1.0172551813546455
9.293679226813389,11.212719924642542,0.5138370736543063,0.04396989520067507,17.478801173329018,-4.484370274848832,5.973413990087154,-0.21161161041357845,9.754626738587177,9.565236999202828,-5.7582622319134025,7.502604614344392,3.7325729011623565,-5.3408528388801475,7.375082825653622,12.989430390044129,9.763210313726585,-0.22687363090644652
4.265395071560164,9.232150838528582,1.092059266799141,-0.5571710641742662,17.430028938546002,-5.420131662284618,-0.9150193825580244,-3.320569764966302,13.464036038004942,0.27209150304537033,-5.193538263459123,5.489844835030928,8.253404647162313,-3.473645208438116,1.7883728997079427,1.2061757901307126,3.746672836541797,-2.2493851309997446
0.03574990879797468,2.7703375957736114,-3.1133796569606353,8.506886118010236,10.957625473248264,-1.175112416105648,2.3538549293630826,10.367827244925651,10.943800603197687,-6.181657165920743,-7.558162210044891,10.99561273829605,2.635585428925836,-2.090858551167125,7.436887266950805,14.522581086547248,4.473198520699067,-2.999498907225476
-2.2236408086483124,1.6906214628700624,-11.321210810366031,8.290623399503286,15.151486790175476,-1.2221937551481084,-1.7983731299780623,-0.16266098281312358,14.498552299220975,-12.530508325539497,-10.410668941878946,4.879018211461839,2.6017912168438215,0.565302802737726,3.617155547571997,5.184009354907738,0.7121182722874373,-2.574905849105125
-3.684953715834851,5.016330378053048,-10.445289962164306,5.532508904361002,7.159485065017265,-3.9012758219380927,-1.9457655914537466,7.764407861916334,14.264608683428769,-12.036162834748211,-11.114277742806154,5.304427498444359,-12.356329455811924,5.959659883722771,3.805914415421519,11.667606670034251,3.791699239339537,-3.905372303265356
-5.1297405990239255,0.6378058008055802,-1.364529618804018,-0.4509770810552638,12.079434913405798,-9.896045745752279,6.110941942876186,-0.12882374752767578,12.097209030030065,-13.878535481655888,-7.520496511155754,2.994381464606399,-0.6368109949977168,1.1036867893341569,3.3155589038491886,4.3830726646411415,1.4070337348532025,-6.502644680018749
-5.972350781856257,-2.069912011093386,1.1747587298930058,1.375574863477972,12.137395216466082,-10.124417790005765,-3.019282196647181,16.490299501385582,8.093746390165144,-13.760775155806098,-3.7309284497710093,3.906028015734325,1.9197187735883219,1.5249163720826964,-0.686020844612079,12.725380429964487,-0.09415927377175848,-5.386214288032349
-7.775609558672379,2.6548768539318175,-2.7297597756644985,7.496571100040843,5.575286581674703,-8.68810221060562,-4.1407610978366,21.29310626680515,8.308729264916792,-14.222074753750178,2.598234128286384,2.9611899800823553,-4.394009436723124,-1.2729239280282503,5.082590504021657,14.623872400592063,-1.786150772032375,-1.8256687267157599
-2.629546907370809,0.9446626499643749,-23.527455789107428,26.994266597287485,8.11575760437313,-12.325569248320864,5.773874325406004,13.10771099477194,7.468361805276821,-11.063245259314929,1.896554628421252,3.4802553762886306,-3.2694006655164003,2.768862644718415,3.9218801522434212,11.250431544609468,3.1670635135436536,-0.313301920052492
-5.769082486394183,1.3932120450856154,-8.287826462052147,19.047811148908114,14.973324115333433,-11.075816510674283,5.6305305258115865,10.87972192379329,-0.6777355264992053,-5.944564184000972,8.226769559135224,4.77964439680915,2.2659025406737214,2.5172419532034356,6.867131616295855,8.757483943915691,2.46056910712794,2.7641837604908264
-6.54983987686191,1.4613055854391526,-11.601540677765499,16.372632818896598,12.182667200486314,-10.993711850069825,3.6324351743025094,3.671478122938113,-6.3640789644687175,-4.920909430094051,3.424561146758818,7.542985097407793,3.910734884223274,-0.8559461367115748,5.910367223590108,-0.4722873236200371,1.270185345987981,2.2308884724264217
-1.7494357629131798,-0.7066756758772428,-5.245503513607293,9.300700310079101,5.7982976682271,-12.372317246802002,2.123350706119556,13.260660913036519,-0.31347931322959965,-4.867333378794582,2.138612242747894,4.641285806851981,-3.120394895443745,1.0478097850586874,0.8562266758244714,10.026350474966396,0.5724470802681214,2.286054588504541
-6.212173400936514,1.8228423250611883,-4.161341015770134,5.644717586477324,4.1208475122838735,-10.91478162715223,5.204878048601136,14.744551128400113,-4.596887622373416,-5.881595856966857,6.6150726151526165,0.9574563589127939,-9.550267911211087,7.251876877976375,1.4704373580697627,13.983448737122474,-2.074133394929209,6.738292703560779
-10.172609974059093,2.7019774641824164,-11.181119278402562,15.65883181248828,0.11867685703052189,-11.894713122452686,11.216810628334498,4.802789470641862,-8.081628745701721,-4.0574913372782415,6.59990118520936,2.546298921872067,-11.082214279791934,5.548981017345243,2.284117409910234,7.4926796859152605,-1.2984262123504626,7.286652839147902
-11.482610634287724,-0.022557532684349013,-0.03489765880990625,12.389590779682148,3.6549283751979758,-5.741743975802562,4.729199678591895,16.24837978839642,-8.814860353257728,-1.7389116243286917,6.097086803110152,5.306210128268187,-9.57200582856656,9.90412129720387,4.66442502444486,13.894223373126163,2.4112324592343555,9.302267862341296
-12.7792738362689,-0.7844073323419174,-1.4848555806860062,21.228090539699682,1.350196263658006,-15.50319219340625,13.476816740382525,8.162731422543596,-7.871135095430986,2.5389014070944924,4.716019860342955,6.7957676182876705,-10.879385639224829,9.672545188891936,0.8963468337780061,7.797045849557372,7.101638732474755,6.730314293419894
-9.180055879533043,4.810887206707726,-4.398001775383051,4.673841968658902,1.212113660333543,-12.66308949105127,8.455285502137148,-5.293781546852099,-7.594561074765529,-0.11101648140728138,0.7965399542544183,2.815709122259924,-4.94588888816444,2.1197760395438143,-1.2075515473418008,-4.255807479645609,3.9835453051009235,-0.8198831449571236
-11.232339643186982,7.095067409479967,-16.39163091097427,19.075443621323412,-3.595668773422652,-4.741174147173501,11.246938215961128,6.8363455708513134,-4.372128871677987,1.9324940184155883,-1.4620491005434564,2.4482244303388625,-7.397039976481807,3.6522532219763866,-2.037956346134205,15.529183966680622,7.41258769437966,-2.0200716127882536
-11.221514042499905,5.091410310823079,2.1833087378799716,7.400857090833092,-7.799946400350954,-9.413589816983865,6.714796019243751,3.634520038036501,-7.676970669204046,5.153640637191565,-1.2784646032954816,7.255856732235122,-10.908797773595225,-0.3787462612748058,-5.110603115205517,9.533926989845712,7.232307062135126,-4.487600528967464
-8.952617232441767,6.612386470306873,6.306608357414158,0.31469389184013385,-3.4907612267303207,-5.098068975402118,9.312174496838784,-5.719430869684483,-7.93896354652334,4.864736394492217,0.5660520779486595,6.789246561092912,-5.618023140791291,-4.309136428481121,-2.319957942370717,7.251030936489722,6.958326623057765,-6.7576501237832165
-10.676101275370296,12.048475185075075,-5.974877309695539,14.809481136062441,-6.098360605926025,-5.466788598115794,7.906060512563505,-1.4986446111680296,-9.553045446569854,8.38999454485058,3.9738635119598795,7.396165125722367,-3.1462828416087802,-5.111591214451295,-1.381042400942606,4.481183154181047,4.735092333037058,-1.6035945763747845
-8.189075562810018,8.801673379256476,-1.2621914419683968,9.869047450934477,-6.540904397975645,-5.441639821494368,2.984711213960331,11.023359218488224,-8.906223447030541,8.795596508590297,3.2808408178664514,6.049239945877945,-11.794783384449758,-1.9072557330306186,-0.047790124966731184,15.775355455250324,4.566513021989194,-2.4045918257501784
-3.542714884252927,10.055618518124037,2.866282571333497,2.388260467899266,-8.041432830745855,-10.393892202207848,0.6028741572532033,11.729083871264308,-9.514523285865408,9.206469195860102,3.2722330305780987,8.803267732423102,-15.450298992034625,-4.461969632923003,-0.5663923222053047,14.375293942551366,1.9602726116589135,-5.937984552296008
-5.135949637240785,14.540599751916414,2.113614134680009,2.523602795762546,-5.71739864100654,-10.460208020179563,7.0106116146587745,13.607005863828615,-12.354872893483922,6.106811473943642,8.537973408835942,11.751955055715,-9.81619303407263,-9.162462988059671,4.680390053518545,18.73827678573958,-2.3024285054678284,-4.488859930225114
-3.496346090192432,6.924188959632875,7.808111202673722,4.0250556938762685,-0.5457237457713688,-3.3945534320980792,3.262288154240682,4.449904125539264,-16.45104864158528,8.969299968000014,11.070146421578642,11.672612017890009,-8.955486459863128,-4.6805051910946815,6.707978751885161,10.699928000807546,0.7628587581136568,-1.084657065267999
-1.6516633841038697,9.179212147637699,0.2229204870439765,9.041165015554851,1.5161205861472098,-3.9433414875046773,7.5222088652971015,-7.929606304288749,-12.623579784621903,10.762451573761387,9.892193501026947,8.760568975859634,-10.231728934209382,0.29229688063124204,7.762434193173636,-0.6576204801203609,4.222370391141812,0.3682647824859533
-1.555427472717973,8.414679574913004,6.995192782190095,1.4584780992582893,4.374090401499959,-0.583053211671432,5.141677436673327,-1.1679077093698167,-14.251936416587206,9.435326324524478,9.496389187270863,10.633143888329172,-10.81315676906948,-3.130979854405741,12.531258884116584,9.177684656314764,5.2439660327636695,2.0183257708746187
-0.4735945575784264,2.6772659681572115,-0.09814836669820876,4.617268140743558,6.56296176686708,-5.81397374273768,2.956699692805915,0.1252440317118415,-12.937915263988717,7.526896468953443,5.292837836380854,6.840972143172924,-13.922788142892927,1.5537532658522064,7.439956538180985,8.760010087330816,4.21820933232252,1.4240318225860493
2.1794072815671868,3.685727337460854,-2.502121781993899,1.8181336711818434,4.8596673200301765,-5.768798386547303,7.607965302913343,9.621926602344264,-7.412330585975976,5.81829340242191,0.7972358756748756,5.977947815990026,-12.041291649479827,1.455604459983706,10.164506357484674,16.74194167057569,2.9028709084092608,1.0267754406792964
-2.4836522445981295,-1.548590805031818,-3.5370799749521735,18.35450022593561,6.49051395436755,-6.0141127090439195,10.599213560939152,15.896177913299335,-10.175740325659184,6.164882173334659,3.626904450565423,11.169130903007918,-9.563581865411624,1.1644168003643838,10.25545706191984,25.115500722513154,4.227612891146943,4.146868385170405
-4.306745335477782,-1.599910061067849,-7.206979539124119,19.948570553411876,4.228459251582358,-6.159380068399089,15.836716127189943,3.2250947684702553,-13.5135523662275,10.031395425047576,0.10977698220149623,10.207315576616383,-12.349441013010573,-0.49177390922357134,9.470573602145398,20.501531398755773,7.411101938717078,1.5067735564966762
-2.99727700286493,0.6018581132811285,-13.90244058820093,18.41699940040369,15.846838667174064,-1.9077541273178125,5.839698964461607,-3.4886066536116616,-15.082352274124865,11.265260671168626,-0.08601359458710611,6.022245120058619,-1.453586723345655,0.002639092089248507,11.032485782073957,6.708638699712194,6.4961431596731645,3.9464479651028332
2.030320081948501,4.568243806307704,-14.052993651992548,14.541115488853944,9.508852235141315,-4.587626851397623,3.0694031715461896,7.864625363609575,-12.245754200224269,12.307785205877492,0.9887364537842471,6.03591826557693,-13.986280733867723,0.5967708386546917,14.159854851033922,15.084908962902114,11.736725228841813,5.020428281875381
-1.5292091526196288,0.43563218869449827,-2.5804252237175,2.754493004123665,11.191078893302578,-8.339627794147956,2.154613355331067,-2.6572334405585085,-14.965222410101052,12.377569596411652,1.6738614320462544,-0.005717801978540216,-12.447272447313008,-1.2485528434278823,10.454037160867799,5.590619143623874,3.991855769352285,4.728661716164014
-1.664343007984984,-3.8858846328864196,-6.633575968373392,8.93649699382819,13.275831888115876,-9.25754113690804,4.657813150369017,7.915213589051751,-18.065272919494845,8.642400616364489,4.117847116284546,2.057718571326933,-14.122304482371835,-5.33808988069425,14.075325913547166,21.97638593997123,5.136792021248999,2.6804642311396423
-5.016188499182803,4.00603982060044,-9.512961165635982,8.477439359197394,10.879838283576593,-8.513353347196581,-1.6282556593521358,-1.824924812686083,-13.831321810225433,8.231153336881208,5.68394961733657,-2.129451629115164,-14.714759754079775,-3.273348473654055,4.906146447669451,11.995266244230079,2.5736077442719765,-0.14764010774104852
-4.26079597145803,2.4311991411260685,-13.367039891860474,17.19793489428204,12.108301855576741,-4.642291683178284,-2.4456041713179335,-7.560881215558879,-14.470965303397435,9.19053185608306,8.911284871092928,-1.629553251790428,-7.681893892979467,-7.5545936277076695,4.82175133675341,7.874260969279546,3.3335812862603564,0.34592021653093274
-7.01585000486433,-0.3096883397858772,-3.9377708445055584,4.335854794077724,7.781003831200671,-8.484458412066134,-4.532658039726572,-15.445103508324383,-14.515749650567152,10.153185631476076,1.2996764267575167,-3.864566802845574,-15.680627444360304,-7.244233100406639,-1.4125490712155582,3.656193486890624,4.584558093728798,-1.3077420182304182
-6.738662677219857,3.8887788417919555,-9.350571922165159,11.395796377511497,7.956297885491836,-6.758493717162747,-7.987116984010779,-9.26641746160861,-8.887852907346755,9.94707858007176,-0.2560727918495802,-1.6078122610576795,-10.488198831706882,-12.694062356451322,0.6565076547515325,6.470023255941369,1.0529389957612008,-4.815707544085693
-17.10169791846361,10.14352142014991,-1.4800027027073188,3.6116603125089703,1.696121391341027,-16.163963715222295,-6.461270237499676,-8.458724349873089,-13.21289473329269,7.497831400943566,-0.44352083960207533,1.3320652833388795,-10.171615674836927,-20.09550487018494,-4.3034276615260225,5.182711295119402,-5.601176708602429,-7.443613740275277
-15.448739797291111,6.735417125441364,-2.4943589548409992,0.22207593953835136,-4.945143477554797,-15.02094234143889,-6.498229064313065,-8.725094928607591,-6.006554083534153,-0.6127218635247988,-5.708065502071932,1.3417357618786419,-13.656968779450377,-19.682862272253857,-9.358740254784793,7.50916149440083,-6.39336025528222,-13.976744100479484
-19.45621835937483,4.797253783634924,5.184763748579257,0.250518745961239,-9.331137245588593,-10.55619428950029,-9.953533505099974,-4.499049650098508,-5.824183774816984,-1.884536355171619,-6.2839201100821,4.768958158771878,-18.991429428272884,-20.147749362224964,-5.1343726122438245,9.933636712281086,-8.355053273879491,-10.450096109656005
-24.534598030521526,9.797669295079363,-1.1968769053721875,0.864965493017599,-0.13396316762065652,-11.7543232400341,-7.842714720539419,-0.6634874658599785,-7.587963773474582,-3.1538005225020918,-8.421167786068091,4.094091934149029,-8.108641807268626,-16.021408883785227,-4.423574935208093,8.159137032035229,-3.6737218700671797,-13.465539990110067
-21.69974389791595,12.166008681831467,-12.361784549114649,7.436641431512566,-3.038009424111884,-8.263699980495607,-6.708884802728619,-5.324013043661584,-2.802053264459757,1.341144972824555,-10.850246072097674,-2.1477239700522457,-13.333643930984339,-14.921221009132147,2.1487089361629987,2.771548752783902,-5.337931743750135,-8.960415612660647
-24.135826868002248,13.073967586662743,2.6475553882630747,5.121617903149428,0.7066063436386614,-10.43613585463295,-4.598932676649226,6.812715796160365,-0.5490046429426458,-2.462562402113708,-5.660866594009954,5.37974764904118,-9.47106468285836,-11.378428971416186,0.22670370868517598,13.107043553934991,-5.242177638298539,-9.434968198745354
-28.718173896640437,16.329999945918164,14.143200721086284,-9.20510665178042,-1.0100804253365112,-8.994236080048658,-6.102816058836483,3.324316542161371,1.123954483494315,-4.701639401599042,-5.743840045031247,1.8714450816218546,-6.970607804179112,-13.3033866356698,0.4550150158754427,7.036163401742605,-5.535017895153231,-10.006365241124122
-28.51345857686089,8.945427808757659,8.648393973161346,4.105554652688953,-0.4735138917871211,-11.75071003751334,5.576552243620245,-6.414080795828748,-4.814915297230992,-0.7863212354330607,-2.5052747119849417,1.2924291022987457,-14.231164099415068,-3.6060666207247003,0.4897685541789123,4.28570968428194,-3.0914937429186207,-2.7643842897428375
-28.111966196128797,11.818808578891499,11.261184846841761,-5.0447762369558,-4.129511196965344,-1.5178852703425907,-5.498920412098453,-0.3318402369962832,-2.5454417804612377,1.7635966882803817,-3.6601219168590964,-5.634781998408321,-12.502772121710512,0.23271821690319783,0.5261908153417068,0.2657059728936204,-1.6226890468402555,-0.5022437929140589
-23.70541460932772,10.20362414818733,5.672741028110356,6.996951390399168,1.0100003325418587,-0.6594737174000542,3.640127222221735,-1.866832941090368,0.9982943459958906,0.40886335393879136,-0.32151759898005183,-1.917738143682051,-5.1061191063171085,9.541188131949278,-1.486620129995913,-0.8246279995317582,-2.5935604491198854,4.787936472726014
-18.028588347292327,7.810669048669142,6.238760389904058,9.956877175130519,-0.875940256655543,0.199578585452592,3.40335534980236,4.606165762852892,1.9096030337718095,7.258888478474525,2.432345011752534,-5.623118257683666,-3.760457256929353,6.838529806310648,2.849811636223955,1.4052752556790402,3.4686015294689727,10.27402760743863
-16.843659844792597,6.397582880918875,-11.552840004012877,11.354684389078553,-1.6821476829376643,-1.2846028602110904,6.779198771973414,-7.475763408279256,-2.35099657349485,-0.44073167261527146,1.3787692871101322,-9.231273619903904,-2.5089870364914626,7.456930374674828,-0.9179494573509244,-7.693309060454361,2.500990246136819,6.092543464072031
-11.947742534408913,3.42506467025175,-4.244356203141523,10.31148883426718,-3.4598415515523797,-0.22921943263092537,-0.3927595512088957,3.9778513764970747,-3.7759484322973424,2.4078916792307044,3.4514631019720015,-4.538951582032392,1.8706752343569564,5.634504866947964,-1.9499845324466314,-5.659164727920029,5.538837550706354,5.7201978424015705
-6.759218645200487,5.533641127132849,0.9177116168746062,4.483538378920156,-8.162583453731411,-3.8610319417157317,9.524576057529591,14.064272019898057,-1.1937372092579244,4.1833369328670855,2.888627631683951,-1.7025548776612007,0.6866698938922973,2.445409888499765,2.7810058823978805,5.652147017024658,5.84366589045381,3.1021565806950417
-4.794125752032286,10.476984844154728,-9.543395641886079,8.128894871367464,-1.8257228783957107,0.32006265167595416,13.386276362417963,3.740224650657751,-1.3431232882094593,9.768340551196777,1.155136330676196,-5.311995272154597,6.048236975106977,9.120206786842942,-1.4713875916924923,1.9237846159333394,8.200610378287063,4.781434075332338
-0.5839868309502716,-0.4953893108737475,-11.310891942633283,8.16145106771649,3.5384324532940417,-2.627657256159921,9.043826239269364,-7.26744193822935,-2.466642292854761,4.2211177983154355,-0.08882236671658483,-5.894470155579516,0.08369142285109632,9.545289441555378,-1.8164339687413067,-5.125387397655498,9.875159493259854,0.9922022148301093
-0.4769087987871323,3.671481484526793,-5.556661742123069,-5.2821967128616585,9.784974748849914,5.850691929727013,4.2121423238878695,3.8931685723401657,2.0760586616793955,-1.5208148056974107,-0.5502688971928649,-7.649260728128496,10.332198570802529,5.283102472849486,2.917668876717803,5.208007654271413,7.25388143899912,1.793154247281648
3.1440609924612275,-5.2456876013027784,-33.49226329116614,8.228282151994476,-2.9110210820760027,1.633561689292355,2.7974894188423542,-6.430968678177319,-4.414865798040992,-3.258324620246607,-8.041816646522179,-11.650600683297448,-11.937769981122393,9.126730398482202,-2.9920659671652574,0.8921668975238681,4.24298982628294,-0.4330674161913241
-8.471711813200724,13.866814835764455,-24.218169520419348,-0.4289312968106227,1.4857484269877528,0.9320505002777022,0.40522447506543857,-12.751198663830337,-4.654365709276638,5.0632183196635285,-9.477323136862747,-10.183527268284113,-9.596750916786624,16.09554882029093,-5.287699132431838,-11.139274032734068,8.459691839982803,0.07529017996984044
-2.6092295767932363,22.824616071904238,-6.543406427083505,-18.753623870095474,3.931622686697155,13.414188566719053,-5.796771624945496,-15.06753665407865,9.267467737898027,6.646533120250415,-8.177146769005777,-12.818497891304109,-2.762551873155804,18.767489635677734,-7.094368888386457,-12.4290658999047,10.821720584017875,-0.6857938596372991
16.141251657453545,-16.751971103605413,-27.148366868364764,-6.022497363047302,-5.437229751126127,1.188686956472127,-1.6481710954780047,-12.501078365037214,-12.455179035815362,-6.614121834051643,-13.223453157715213,-1.4888296500749572,-16.53352364737998,15.872922181897497,-5.873064419086669,-11.86412637076043,5.762487325640905,-3.790608045738021
25.513428037900233,-19.41261828194442,-23.629748415280567,-6.962778082804412,-10.898310664335519,4.685764637030109,5.1360202068163385,-6.516705374990354,-8.200635946433865,-4.5426535460216595,-11.139470503733902,-0.6089567460327838,-20.34310348200473,19.521326021464464,-2.3074801271919894,-4.463973607906542,14.766596906146379,-0.8406398975827907
35.07742226470945,-27.248004421250492,-25.08955163654648,-10.636782355401703,-19.874004304169254,14.23722019098182,1.2743054155185256,-8.833362069177081,-5.704062840692023,-8.72157074100197,-12.472231654452752,-0.9990509124353681,-11.164209576910814,13.599093661702854,-5.772849034127973,-9.857875817668393,7.853024708382986,-3.5548711877960093
43.2703780405404,-27.26984165739474,-14.047035585482355,-14.896025026988813,-28.458394941866782,15.584938720152394,-2.1980348337702287,11.018150818849865,1.6749073903622733,-10.654797558326958,-11.069296482850708,7.106662421397137,-9.505273660067461,13.73138302244226,-3.476096849727553,-4.803352749439247,6.701690284616582,-5.976232491844067
40.13087691153851,-25.435442203384927,-14.721314933635375,-10.365350092686498,-22.784475048863015,18.103978746936615,10.051220897606992,2.158134933987232,0.16617672265975436,-7.705721851400593,-7.711925020472631,4.860239830952523,-3.7453290279370517,17.76964321168084,0.5787197578577447,-7.074174412089834,7.699158170462505,0.0008161461106124257
31.322742465769338,-29.850586924775072,-6.213629039980104,-14.134851058416455,-19.16147631611431,15.055871981492299,8.23641837102063,10.095081354115704,-3.9805134551709775,-8.370713085847166,-7.478318495527786,0.9532204790509577,-0.2324311589801571,14.385495687304573,-4.253181818746631,4.326012680781585,6.450730705061855,-2.6162242699885105
28.076293231318644,-31.921581377898573,-7.762549148515325,-7.2589172685293075,-25.59771986649771,6.538192261233242,13.158613037297316,15.102110662600099,-7.249835666410928,-11.185050402066167,-4.216038674891257,3.784170179650992,-10.39283593952534,7.973458025318047,-4.299806458139151,15.920380466825673,-0.3640548592486281,-5.135866801035491
16.328496932818634,-34.28536938067546,-2.0826524384418876,8.309303574187277,-25.58943122392372,9.34798731499657,26.08731264908255,13.66352822778645,-15.599260288539334,-1.9885058258242125,-4.761127444493994,10.618672246653096,-4.538888503570693,10.447693784202567,0.7317310396721499,16.868860647485423,-0.6357385080911042,2.207610926483497
4.672921047024964,-47.00088104478595,7.017411232762136,15.382054315519772,-21.578434512329007,12.840480233317566,14.307131754646976,-4.5724024640430505,-16.626599487363734,-8.418363202074858,0.7498461654492066,4.366622074417031,1.2155881170905154,7.550092195902867,-1.0729011222119527,-6.696004179339976,-1.8840661255012447,1.9334220939342748
-9.429845132434707,-49.657829506598844,6.646821304132352,49.60441320499629,-18.05736325396648,13.59756723319338,17.27175526638979,10.590380895140052,-21.758150832615254,-0.6891541518823538,10.559041311671002,9.051823542828117,0.03425850360305205,10.901843701150757,9.231811706041313,3.2344262298120237,7.707448871312154,8.299545747792429
-22.366770334386572,-67.25677492820247,32.3529953906053,56.38570457271425,-20.1047941147105,12.98637417240668,30.97717417785163,-4.813957663417047,-21.42379445271226,-11.125731941775156,15.095997174352096,16.568683920771896,0.7060280306984836,15.619980772656184,8.207925559148222,-5.489137790520237,3.235982742268872,9.489344650964048
-34.82175934809385,-56.926145859310985,31.88904172821684,69.71082100905579,-10.33802008342376,19.698357813503275,24.46584369281692,12.496781249111812,-14.25665721847826,-13.262989132477768,18.26702027908545,19.104583601644045,11.726831295377504,17.4074824850644,9.03914967187153,8.149499219548266,7.260373474456662,6.967634573043639
-46.209161680459644,-42.299289602688134,35.724173398632544,64.38406252892847,-12.19526593830919,26.89739465462942,14.730169962085125,4.904514698247526,-2.600856583036581,-13.448817771240462,11.380567853329898,16.268891145265584,22.7446615621335,13.920482925135357,1.4713363376385233,-3.7996674483994433,9.135827478542147,-0.6328428169777036
-41.39231874699348,-21.813854170193288,19.248636940423285,53.882192197045846,-15.129859160578919,16.809694742885547,14.172645944022346,6.296462241106061,1.9220083402420904,-9.339569776869435,10.159531315341168,7.182686341473185,23.895803383260812,6.037821864798874,1.3249552044688078,-9.109636685236728,11.596661687286378,-2.2768124719738365
-17.637100006966683,-2.1107353678421674,0.13847922093278187,49.826473989744926,-9.767016247625108,17.16997550552886,17.32439880570029,4.074759124274673,19.722080963842032,-3.0838518049273365,6.888943585492275,6.68994509136595,32.27008025190762,4.990059845634667,1.7638809925446188,-10.221903902349723,13.470883604813539,-1.9682909275721872
5.329349937556991,0.9893458367170993,-4.6138582656552956,30.73219598318034,-10.462780551126535,13.817784361060637,6.118707954474788,8.591109537975342,16.91180504985767,2.290811188586453,4.107899416274595,9.126517836983865,28.14035037097723,-0.4535224508290936,1.030191741377169,-10.652198359280838,6.652801418134936,-3.711294302272665
32.58495769752949,6.431826405485591,-9.657043059385549,8.318275952051314,-4.5219972735437075,6.264752897759692,-1.3777825653051714,9.200803570350477,16.049802135006612,11.569514869067195,1.816391418350058,8.242308573159804,21.36977003247039,-2.382726845233882,0.1003830946962421,-9.521649652809414,10.087917623581426,0.7950369783584446
40.88691058666997,2.0093266630424296,-15.381713904964029,-8.040155987056703,-2.980338211392162,-1.6805461366396388,-11.024574187731481,3.071750566581103,-5.520835843849856,19.283293646499523,2.651170273696902,3.060739281247315,12.934644093555823,-10.758721113402224,-5.127250862149383,-9.662380087322504,-4.642268898636435,7.2537144642007
48.4969409471647,-2.707854521806132,-11.533817173235228,-5.061661946677582,-4.86156873736542,-3.1821494112081004,-14.423137359780132,7.489354406040043,-15.768678274733576,24.26012400586249,9.24898573870682,11.453175835511658,3.3229917248079293,-11.323552926860394,0.1911865205694736,-7.168126420964849,-1.5998081033769553,12.539643057907972
45.35604208204294,-0.3955437833786526,-3.97282769743372,-7.551324465257981,-4.892509145615449,-1.4628401434945089,-12.745400064209708,3.21502424290818,-21.920701769513837,31.968710322585174,15.555047759562159,7.833289823240159,-3.559143883578603,-10.62036799810425,5.99686918308032,-7.703082411941265,-0.511661347949425,16.164487135240982
43.47586230656197,-7.265080582274214,0.17222768740519845,-7.989515803891077,0.7351588047138655,-0.23368951862967957,-15.56185486860544,2.9442503659974846,-16.26224427267961,27.760264120563416,16.686458215227795,0.2090155445909101,-5.7588711260217345,-6.012483800891172,5.160704343980094,-5.505484633721311,4.9698271676885515,15.589099038132744
34.06695717641158,-4.859304055631325,12.717922310725218,-14.970136993123226,-0.08845352725438715,0.407568443587355,-26.876502018854936,-4.4559653969547215,-12.465684281305073,24.037192620471675,19.479246843439917,-4.095316744323885,-3.1787921368962166,-8.730616188004092,3.053791082319491,-22.15773525702422,2.1490545203240767,9.446224521413836
26.406570221692277,-10.17081041045394,3.487999776409331,1.0970857446922508,-1.5042057127663924,-1.6876119925680182,-21.981964962835725,4.354561207965523,-10.628969767139273,15.623511563380838,19.148171341428817,-3.321867805430152,-5.096648676821005,-2.0753665588435437,2.8987593659025843,-16.545965590568954,4.209719591043404,10.52898221635048
16.295183049549728,-4.644775817328226,9.397069654764332,-4.515115585950344,-6.34449118853246,-3.1989422414442408,-14.550357766334097,12.676341159689107,-5.283552763244284,8.18324766391955,14.814298045484179,-1.18163164522353,-4.676651852760038,-1.1837587731487682,2.9376956372604655,-8.494735048097574,3.436765602872769,6.337136642513624
14.084286938898714,-0.000273240015808085,6.323652378372254,-29.267664223955627,-15.488543459123939,-7.153885906406963,-19.816317025657387,9.376376832250893,3.7656015825111773,-1.311109339975882,2.180671421857007,-13.49516181119207,-3.969863490856561,-12.598934683586545,-7.181193520705,-9.332377863911365,-4.271527039558148,-6.840350453328116
-0.24617744285953513,-0.24141149877545232,0.2248507511673069,-26.968474981693376,-20.147474504356257,-9.450890594715613,-20.88508146915494,13.693228016329467,-0.8648601500946747,-6.414266940364485,0.48585034990775977,-20.437936431708554,-3.1718446194191294,-13.27373995708561,-12.125714544758218,-8.218919430754255,-6.122088025755714,-12.4017067286709
-9.703979159437424,-0.6807578472818072,7.311828661207349,-36.77832891612177,-32.82177828348812,-11.847867310928539,-23.030195428096306,-2.303233722973589,-2.768708241699528,-12.888148087552464,-3.9422656707710466,-20.252115261709005,-9.607167460923602,-19.712404045707736,-20.78279205131951,-19.900711187653304,-17.15430205747417,-13.472022669485765
-15.265904517057091,1.1229951530296702,2.095893288958695,-33.30624216784546,-27.534793653636797,-7.313529392449824,-27.716549917688976,-7.362546004893357,-4.094678449274717,-10.576461947424963,-10.029459323933795,-20.65265852237844,-6.381280747674831,-14.531919556915906,-20.554646401902,-28.45957226229153,-16.078873512744586,-11.61386420807262
-21.131438116455996,4.193136772359452,-9.758830786031766,-18.017110689349327,-33.974765751699906,-8.641110328460094,-25.373709829405097,6.816184941690456,-9.628260265251603,-9.440409931200655,-9.181868238223165,-16.463704384899142,-13.318939469890127,-13.943540647152568,-22.964958301070883,-10.945962549874062,-15.493741542784843,-10.635924558597358
-25.0546463937455,2.4747565513236225,13.349827645378232,-28.509195523138068,-34.465930041765276,-8.994636704098301,-12.77899164339102,12.205173911284747,-11.752404838519363,-6.45271170884161,-2.962035944430723,-16.57210522848601,-12.158375832329838,-16.091838449387776,-11.21666229873177,-4.5675078976311285,-19.109989831020975,-4.288148932220224
-27.621662751395974,9.346837097281607,2.6707916579564883,-19.66465302408411,-31.254695171270896,-7.006967378404122,-13.46793109035071,12.613059371093827,-12.029885448696072,-5.324468639738145,-4.553777971124058,-13.360554960778618,-10.321803469939697,-14.140838216140516,-9.919573210312283,-4.7343193726477235,-16.380670828650317,-6.926264915739359
-26.48888071220479,6.449598273719669,-1.5609794916688897,-18.730026176981003,-22.290523324013648,-10.393129833592404,-16.79585328245438,2.668652636069585,-20.422035490447733,-3.907315219358509,-2.628817988288753,-13.37211940913371,-6.539892826244104,-11.410969008716506,-13.311947079653937,-15.548044889482263,-11.407496782552796,-1.9484956553258774
-29.566748665403164,3.9393228890993335,2.1193487698547937,-9.787137994429791,-27.300546751594023,-4.797501036731031,-6.746906035731771,3.8566440152584263,-23.257009615877646,-1.3224340354906512,2.8128215655225173,-11.528592915125392,-10.285661350624677,-4.679590104332725,-8.600681040396903,-11.422377313547706,-7.706232224026737,-3.2222783824443555
-30.31236144461053,8.847248916338472,-10.995665223928421,1.98811548519771,-23.33545920261497,-2.9156506973418232,-8.12617094039921,2.7979110809799064,-16.531073033026473,-2.3551540017556207,2.8842629897200815,-14.470698222031643,-4.6645321573858745,0.8773747889643309,-9.75089137490793,-18.04132101614787,-3.421464655607787,-1.1771918369041312
-35.9525470671202,-4.706041223717463,11.731465133653082,-1.3733268804329128,-24.946520503437764,-4.454667779829305,-4.234188411164582,7.5003770271272145,-15.869690915056319,-7.005572090859098,5.39810124083305,-12.823288272624442,-13.407543674781142,3.209050892917734,-6.801546355487449,-9.134960530052442,-4.608057166120822,1.940599562518166
-34.573208152698896,0.4869379211817524,13.073266841844955,-1.218874819411397,-18.55955511716175,6.698913989933478,3.5618208385762244,-9.673109532641543,-15.218304240682018,-0.03917506852917452,8.205840877617241,-15.180239777577262,-3.897213602716853,10.323311932049583,-7.272348038694187,-17.125680112028615,0.4528372678914545,6.61934901779844
-34.57304879217247,8.507864097200944,14.221430246069795,-5.165871287990697,-14.135896614635694,6.521231053676544,-5.2462793357351964,-10.538382520710815,-13.405235035060226,3.5046536723060893,7.987092677312045,-15.096137051536148,1.5026374115852121,7.4737794700752325,-10.18677336580488,-22.188970933354813,2.483652987957499,2.9955901920246717
-33.60841304305919,4.805626370101429,32.16836084768906,-12.921383415440328,-6.597580261965291,2.434213571049172,-7.611271332473291,-3.201044034973444,-10.137718950783764,3.5281678657810804,13.726341779758942,-16.672599935549155,3.1824470052056064,2.375356618083824,-3.2399996779619373,-17.29348600378202,0.3124182553594155,4.155426616127837
-33.73023451838553,5.981935896334075,32.440833046806574,-14.036074475029832,-16.062331904110916,0.004296061341324098,-7.732445396913834,1.108256831677755,-9.908214803323531,5.98840409028629,12.337423165119157,-17.761152502438463,-11.065190750630912,-0.47975759678928753,-1.7643430124210422,-9.372933048253682,5.755642298230621,4.2393611894628975
-32.59483964898226,9.595247521350323,29.980435679978452,-4.310704222935319,-13.135396708271482,1.9658400319858238,-1.117551243391664,-1.5167977758575883,-10.666106647645634,15.865824548743838,12.02355828420557,-14.55313685597227,-8.622774069280567,5.060818802009785,1.9551090472346857,-12.197059475585638,6.508374099188115,8.911511124192694
-30.885935816232788,6.367977327926049,34.25992204207571,-3.0815489003913275,-17.446198916393154,-1.6422977449178475,-1.7316498083154155,2.205237316173614,-1.9622066507766291,10.699069562315152,9.952643083647299,-12.029091341885627,-11.463472831024006,0.6373764105185877,4.597946079402462,-12.386758812434252,3.644774649634315,8.308413948893289
-33.09587316265007,6.847065726513051,26.040667719665638,2.8351416064329724,-14.150973981717115,-0.5661067749137452,-2.641043969736378,6.414891015411656,-2.6446427227250346,10.898530543447102,9.347352543906215,-14.97423847474181,-12.360787466209047,0.11726149276310505,4.6992565392479495,-3.3989642768395925,8.981358007889481,6.141034093236631
-34.04887634932101,2.4385391738435658,35.987151396052596,3.8688628468778643,-11.160204248546457,6.268597408042104,-1.5996064600520512,-1.3880332620625229,1.0561487925896955,6.7960181874854975,12.942072106198562,-12.548562018893463,-9.361731148507742,-0.21057146180039776,6.9465683415716395,-5.253512293962023,4.353713704310353,4.264839970842391
-38.823223447953794,5.447183665355359,46.71624149214991,-6.42584305893356,-11.501478454557027,-3.9901454882754415,0.02545527867001951,-4.211093703199917,-0.039830961669025555,8.059579060680507,13.021808196941478,-14.127197645405285,-10.181428027706973,-5.326717106552813,5.285059834311722,-9.454177067491452,5.679984316672682,-0.6405591591264772
-38.33681081718376,-4.2445813438967654,44.653456187573326,1.7365864854253161,-12.83120299474707,-2.1427186550702193,4.284956387453336,4.195801002338897,1.293925980231684,7.950762789288381,8.414635032920335,-13.850673290590008,-17.26147891739948,-1.949771181381219,13.09380152007581,-0.37571568139483524,3.8779327317617827,3.8273432253294146
-42.1601537079362,0.31669757138982035,34.58396671671695,8.824554189562566,-20.911370028057704,-3.130802187925574,9.714035043155366,-9.859272601692616,-3.341304299550494,8.325003616942961,9.472239391857409,-12.890873939581866,-24.64491354197402,-7.169885073585403,10.450576401174676,-2.8231875602079395,0.9983060435771574,1.750310134857785
-43.06662651988613,2.0408362952688357,35.74628778739234,0.18934865192701666,-12.206642974484556,-2.462184225186495,-2.2422734179610204,-5.16475029741419,-2.2267446522304866,2.443858223786573,5.7452086523609704,-11.052476009277406,-24.226285839876446,-2.8227644169487203,8.000042052192722,-3.026842710483436,-3.7402212386821794,0.15967467065244256
-44.66960319623588,-4.63873265228405,47.16377986466594,-13.915018912845387,-12.20586407984159,0.7420124100595622,-6.8765530908608765,-3.302993751747654,-5.909576023416726,-3.8332645782318995,6.413335239487376,-12.73006953459773,-27.23637673232058,-5.119637783978481,4.472613683382349,6.240002320459125,-10.24005301688379,0.7155954136152991
-46.676138407268915,-4.096843803543452,41.29689610363705,-1.2615468789229491,-8.70198114912283,3.0637260593154236,-7.509157798952532,-11.598333510921586,-5.112451394432842,1.4078276517220045,4.2499105434083795,-11.282919786852492,-23.616574168376058,-1.2673833099771574,0.7471787464778092,-0.6089676678704947,-12.641784548608129,-0.5859167662916822
-47.914357448607326,-11.372858718959552,35.235674961142095,7.094549648438236,-1.1092062963074483,0.01066168327584105,-9.315936732829542,-5.929306701308979,-7.062175055870231,-3.415273685881357,1.8916570481863157,-8.371199864474983,-14.245927318879065,-1.9107351227110936,-4.348185863858772,4.161060258217136,-6.160244209368182,-2.1823585641153582
-54.0484176759482,-14.454941527998937,37.76924509985587,3.9265430350328696,-5.931849374239235,-2.460095771766203,-8.39056755164977,-12.761158712781118,-10.879952035519821,-10.489993494497238,5.100344294845293,-10.537969833937286,-11.136462010005271,-8.319282631637924,-9.05566903464604,-1.0322577342060182,-7.299645655509254,-7.3941124048004685
-54.042993105619345,-13.343154948992023,36.202030537701134,7.4963746980497135,-4.029138283481458,-4.2509239469655595,-7.85808350453239,-9.241975005069698,-12.073644089018725,-10.831859795070137,4.305476028764992,-5.087714963584213,-15.948477850619783,-0.1802529871331915,-8.98069862664951,-0.27069127570281637,-10.39589341853687,-2.0608239216873896
-50.53483158256351,-11.455579123347015,36.979370622185385,6.768662886669226,-3.9950923074863525,4.6968908616802505,-8.011441676807477,-18.809608674112784,-9.276153715400646,-9.61676884229232,6.7336867398730815,-6.0831413792804865,-6.416122314618981,-1.7128011318260903,-11.349971507130947,-6.640356843203837,-4.804345127569887,-4.346849398225003
-53.09437070680216,-7.229745932655321,26.72208179966836,15.122459758064139,-3.6813724839207325,6.51195055936345,-11.389725479344737,-23.788003000548606,-10.593177214166342,-9.188538256560415,5.451238074067982,-4.149097685107499,-3.926546881693323,-1.002716423991143,-13.136119732769584,-14.2817673660474,-7.029207974802571,-2.1426443106881505
-56.54571953012994,-13.26355603763491,21.73893195822373,24.647428993639533,-1.0372907470274484,5.6864814538738475,-12.914712898508908,-28.376433815044027,-17.977966213410113,-6.715121178807682,4.462058085426342,-3.1918853091481765,-1.5461525221093275,-4.202468393305919,-6.721859453779178,-24.171475637560295,-11.50403764698255,-0.8193982286391992
-55.42000411575007,-11.783349349023435,23.592368764093063,17.569801398795857,-2.801348787760901,-0.2209877556593387,-9.168361815364845,-4.351805960712468,-17.270238128470154,-9.423213652410158,3.863764772793961,-3.2114962938329557,1.213254844971928,-7.6010930402970684,-9.783259374742284,-0.3714067494757298,-12.07644111909013,-2.7209093590263027
-52.84222192171981,-7.867373379819201,18.024284626043723,17.13205752201918,-11.219785383383474,1.19205010347752,-10.111738830617005,-8.550914664176041,-16.282694771711412,-8.035349227605487,-0.15233388138645765,-1.0828752728041007,-0.9219314374337806,-10.02672581372806,-14.703031343316143,-3.038700180264051,-11.1879041923616,-3.1596171742937216
-60.238268623278515,-6.593872031697627,14.11677060229929,21.478637591569676,-12.718278530613347,-5.211378510602068,-6.760307289282012,-11.578769320041356,-20.581902757010145,-14.465786579140469,0.8122872515985131,2.99866962341693,-4.631430934090126,-11.088762268859918,-11.813072486153303,-8.735467961475925,-12.35414547073879,-4.381659226522902
-60.029681434640615,-6.986305687545594,3.6664966186498518,25.042986620786408,-12.668100925525124,3.7135890316768556,-12.786124592725475,-19.49013769499134,-23.331888487918018,-16.702633488142723,-2.129267034810276,3.857285128096386,-5.130091118303081,-8.443441325854616,-13.80890022885242,-13.848341508592961,-11.571235198232658,-5.019835187276117
-58.46647659126695,-8.165788823299934,4.9353791703277246,14.445929341442039,-12.24123554300574,3.747813462076233,-11.782662538676487,-28.476354496992478,-25.313974852759433,-20.312386329512513,-5.656674719842002,4.03207899929542,-8.668078080738933,-5.60646446509975,-12.877904362857915,-21.599992207937422,-14.308042015229798,-4.195231908989852
-56.42748512811296,-4.370545245637288,5.716118943476673,10.00020978634736,-12.121369756842515,-1.9836751467464033,-14.296927579474994,-15.392520578513258,-21.938301757236673,-25.4903610706449,-3.8128550484319863,6.15981623236911,-5.8703134433655215,-10.976418312062982,-13.31703224249737,-13.630729063684448,-15.193422984398241,-5.814163967528948
-54.693870939697426,-10.83520921510463,9.426654284941417,6.5299007929853286,-17.289124604030615,-6.254219501662283,-19.742942187495792,-2.406926909033375,-24.630871190787936,-26.865377726240496,-4.410468834454706,6.334192674592725,-11.092543608465807,-16.25241405479236,-12.782502671840689,-5.565752867154046,-11.297676227137776,-8.80239962575126
-48.480297437561795,-8.418886775273892,-1.316175743919004,9.30845240583913,-19.73663478052662,-9.552121613168339,-13.27669719309957,-3.0939820230407866,-19.524323128897844,-34.39851668765172,-7.156584630314727,12.172516895936766,-16.229228647549803,-15.477346761206967,-12.055579914971174,-1.8972802861359614,-12.093630398222853,-13.159940700735019
-45.599267333574105,-12.160889319758102,-5.809013936690494,2.710557325593064,-15.948284129538933,-9.142975867563251,-14.527364139516479,-6.906631345760158,-23.220505138518433,-40.5701179812531,-9.707458577247895,12.639468432581001,-8.87788194367107,-14.21772294481013,-16.507439797305793,-6.922210796618262,-12.991397091574065,-16.73831711932304
-36.9684852470489,-15.615821704491488,-12.157536809387977,1.7754377381018935,-17.54539932359342,-10.104993631517283,-7.967326592807672,-15.309721054292613,-19.11762579861617,-45.380162695379795,-12.453763635045696,13.985146106209594,-15.992080012307131,-10.71571671348887,-14.419151396878954,-9.800492479560436,-18.87388619995835,-13.775720798233586
-36.259900340868995,-12.924231512775087,-21.240748361676708,12.557802855111232,-16.03180568509315,-9.215476099748171,-5.022502902322014,-12.092045086622722,-17.860395841981617,-48.63331146824406,-13.344729319227177,21.971359269240917,-14.036341555080874,-12.198012371426405,-10.673597397331969,-5.453878449969322,-14.506510642019052,-15.698104278508255
-34.293541826054316,-14.730820694189415,-19.288991700154625,15.526033128979877,-9.161417038252907,-5.107219242023002,-8.9155597855198,-6.140435335443134,-17.9839588797018,-47.79043417242525,-11.892109013349303,24.879180974058745,-7.6006082558285115,-13.78173255081467,-9.177080871045163,1.2347902764287166,-15.416868966832299,-14.595185901547092
-30.971600145294005,-15.273787136995129,-23.490113559721422,14.78168132247734,-7.188331095943141,-5.983475248662343,-3.142299028479263,-17.27938934330203,-19.878948245781192,-47.050779724938224,-12.978831803521931,24.95474025471224,-13.189059904678889,-8.630843190769045,-9.441304385293643,-2.3322872356643547,-17.99164013852612,-11.345878960308331
-26.196257306113132,-19.63133416916608,-17.24238247176647,6.320707005625828,-15.679067216267498,-7.547303235470833,-14.265584433737814,-4.883262278829132,-15.14679333089439,-50.320618784574,-16.21430877507638,24.93245394913228,-26.60242918156491,-3.3860764863699835,-7.266974196771675,-5.119737299616375,-13.246324894904426,-12.004955308568011
-27.291675304838982,-19.111920048970482,-31.79635940484451,18.463781017857713,-13.246601674516963,-13.314379170498146,-3.612908046401621,0.3834415958551407,-17.947854179853405,-51.74044295621546,-13.20001626330904,23.152139658592212,-23.91457905041069,-4.395189538539228,-4.509574281204985,3.028895574576975,-17.880407114131593,-9.93167891290938
-25.859111893838822,-18.696082953141346,-14.02631750590917,9.022685149272617,-9.55906533172113,-11.272795960323228,-7.512905035278271,-6.655110619405352,-13.53579245522613,-50.528941300356635,-10.57672250383327,25.082629055813015,-19.090569437400625,0.842006261037703,-8.591077650260873,-8.16023612011934,-12.557662052972685,-6.39558902215469
-23.949195125095343,-15.747053639644271,-27.11689797976888,9.150163415359792,-8.425117890816622,-12.457870786288272,2.0622414418696184,-9.397074611766444,-16.266269100349554,-47.857952667919214,-7.856180601623217,14.317419040760083,-19.650043208666354,5.391811082989626,-7.694880375521475,-6.264709345817636,-12.805675697011509,-7.1584792650573625
-20.585155403251903,-18.761041571396962,-21.75102484280344,17.967220500011003,-7.2080014870448466,-2.1232750187328886,-3.501139838548932,-13.897200643431312,-12.5648241223115,-46.95012347062418,-2.206357781132339,18.591304056646514,-16.99910990200033,8.668280043912848,-5.3366416184036805,-13.062145511279983,-8.56570362736378,-4.603031209509914
-21.13796873668054,-19.925409958280838,-10.917259675470241,9.008532660135291,-14.501591686622973,-8.882714221307399,3.629454869057735,-7.850582719586004,-14.248002735203425,-46.34052365251362,-3.490727353227597,21.107148030671006,-26.3723614536749,3.4447437550973206,-1.12570884507595,-3.5521072148174824,-2.8651361312790105,-9.373922173876391
-12.325975464813446,-20.705003698485562,-20.88561598124306,8.934586335651488,-14.290006891427822,-10.665524385311508,-10.726134555263087,7.1802871376818445,-14.382056848004275,-45.2478224492938,-6.826443723333777,21.474314211766718,-21.499844059961074,-5.395905582812382,-5.218463390678437,3.6128343391196314,-8.69245053576947,-10.338151777928829
-14.559429180091833,-16.216910985294483,-23.433087443230246,6.026375700063483,-13.21395460409343,-13.91709917214639,-9.555574594268014,-1.129270184560509,-17.06855584069306,-42.304737828556235,-8.111923061836622,19.302164822560876,-20.741184998519024,-4.669866056311183,-8.044421041089429,-4.360426459159791,-9.152853250945427,-11.792640945198462
-13.873052062760813,-15.152642328569014,-17.48551859731865,3.5065288393082445,-9.710885584625387,-15.80534447131195,-6.335582353875318,-2.8959523089496537,-20.061308856446416,-40.63623904907586,-5.296393915295896,22.98925767150838,-18.04157037387516,-7.072635098315454,-6.185533195525391,-3.448026051056843,-6.883096301862253,-11.68655586331396
-13.196348668851691,-19.562978383246165,-31.363732776618804,14.461105329469401,-14.523119322875878,-25.900696705363625,-2.335656442600314,-0.8541410740551747,-21.602406651658494,-49.32441284473382,-5.215939006832814,26.48080400401049,-21.897183461218063,-12.213571183863817,-12.92322282847369,3.420363928650559,-14.773992038535384,-19.492674442931666
-9.501694955918346,-21.04931812505303,-18.289750088710775,-1.344961566541686,-13.880876052309812,-15.882386655613965,-5.563678608606779,-7.015702672699591,-22.766007403360558,-48.54465028636487,-2.890054318731346,24.01498727226751,-10.920932976141824,-14.428513053485576,-11.948615692291847,-5.044582267320436,-11.536141397820773,-18.51149864026161
-13.23822879182947,-17.26783697896017,-23.479180723974398,1.4014416464705235,-16.573307545817556,-19.930596325853386,-4.6912971741253084,-19.32978779066734,-24.430946813249797,-44.44929684091977,-5.447795419771728,21.74423422568413,-13.433511324951262,-13.424473402389573,-12.636821266114017,-21.03018284301782,-10.743956208804661,-19.875984773073217
-6.72965287951434,-17.300662575809014,-37.947587903606134,18.403296413154703,-17.131529135169142,-18.12311722171724,2.4300127914176013,-20.022650057269537,-29.331550703609686,-38.89375303955117,-1.9515357567212308,26.602232554145267,-18.594851119262028,-11.740537653268747,-9.225997410408084,-13.285897439808084,-12.104446893164457,-18.312587260637795
-10.288525057376624,-17.241439770695763,-15.600592345134677,5.421568471915456,-14.481248132526112,-18.370194336588554,-3.633583579683588,4.480174931431746,-31.217625919993516,-37.24909380987877,0.3720117588334615,30.38571926978665,-12.830462292174257,-7.3258757248906505,-10.309987924014674,-1.5385251762951242,-7.3166869056921175,-17.532271086673536
-10.144846305526194,-24.512107994679564,-13.861018009146605,5.1326123672513315,-22.489799823854764,-15.886564007494785,-6.670845286139702,-5.392494962967384,-30.675014297411348,-40.491791655468646,-0.5280053523830763,28.309451363202733,-21.824260405640178,-6.332906012135615,-16.084069129398806,-6.198468533289852,-9.66210803101477,-17.339690131962165
-11.376556131899896,-22.9014303462345,-21.01000748599329,2.6923738580921794,-16.645021415141137,-20.340305691242815,-7.853608407708562,-4.327428188036,-37.95766719420405,-40.906776229428424,2.379730471689932,23.889092845948767,-20.673445773808332,-5.538902185202406,-15.219902228288966,-7.734113514836317,-6.640496453156619,-17.441839074739615
-17.596722856404796,-23.542334009192267,-20.641130444408198,14.311960299153602,-22.24019144363389,-16.106141749370067,-1.1270356455912438,-4.336485912628795,-38.026174598874896,-39.177539007075175,4.895896888880224,24.839589706260817,-19.63199935978443,-3.869606552070797,-12.79564702412982,-7.512601815246212,-7.626969982245814,-15.397240886661331
-13.375150621342826,-22.333135622364416,-16.563107328048424,14.014335613695634,-19.646021913071383,-22.12963217864433,3.254868247692576,-10.204855837542008,-37.325822740377276,-28.565579540430754,4.090722394029809,23.543621928761628,-19.383437850981498,-4.8406735895271975,-13.596488404025877,-10.905041837037636,-5.785459441141519,-16.088747668943746
-16.28995512360096,-25.719184751352405,-6.62753496342958,7.6588873973453575,-17.55396347198998,-21.222970779906184,-4.473612285173911,-7.186176981462325,-38.59089722381662,-27.625748570183486,7.483813896017999,17.75504445698869,-15.43541202863316,-3.2762173130318377,-16.059856498917018,-15.665237677957268,-7.561346229825434,-12.582623631485099
-13.74300598608987,-21.786172887683243,-16.323149136706153,11.847355128828383,-14.206082657062261,-12.897822606709855,-9.761415070372415,-3.7766299065275364,-34.692245501330966,-24.54133631982942,6.285935924516606,12.942673015037773,-19.31143644545383,1.8003669951836567,-14.71687023893016,-8.414010551478434,-4.4583754692802735,-6.831986052106892
-9.737984528764137,-19.81151829040646,-15.571429967774247,11.833344253285766,-10.969487854990973,-18.541184230426193,-2.061444901622359,-0.46445992010772663,-34.51657811670582,-18.335639014477575,11.044085786602174,8.520542810967635,-16.75337671781168,0.6233341662535299,-12.20423944545708,-3.7022949101385567,1.179700556413792,-6.258784424609269
-1.9308150836098221,-11.298927761072026,-11.208481797168325,13.28092854147151,-13.801195490903979,-13.347938905273708,-0.12392829528090132,6.266055531986881,-24.391661466371236,-8.715554092574429,9.355692093970521,12.594227364642514,-17.038608371366973,1.49362245462083,-6.178127710680057,0.7161064679481157,4.567688005401621,-2.7573863843795987
-1.2588710128241516,-6.1117605901023495,-2.9413923617390934,2.8109231616843964,-14.888474971806133,-17.24021268316884,8.356069855421389,-0.7728014378879102,-24.141860762545953,-3.0052799468691163,12.158383597807346,7.487656308673028,-15.967733407798441,0.2119808434613546,-2.400289637222526,-6.389377035888064,3.16652295742718,-0.33171822502417214
-1.081129077084121,-3.078048873780027,-0.24302181970658232,3.275165688760919,-7.590483020324463,-13.616134667294272,11.659680781499244,2.931106741163969,-24.587186474693546,1.4320771057965729,17.498967608357535,4.529107678776512,-13.442973612914322,3.6144843871786616,1.5707717016718803,1.6418873591022791,6.253729900148123,5.608175952514479
-6.866122690984291,-5.225105077409232,10.168024732506169,7.837541602767967,-2.8447641133203874,-11.167186572492481,16.42769099830431,0.8736671529377986,-21.332872553983613,4.206023188993029,21.471096903977188,1.570091027941146,-10.636096179343411,6.427649767792193,3.3913252588198617,4.106528618154785,8.16520088436941,7.152062310839817
-9.92201007957371,-2.884733094545119,12.471137262555366,11.712749928076539,-3.385607182975164,-9.307362771852448,19.925744047409076,7.605928569015012,-15.8436117167155,3.265885030678618,21.340317432045072,2.6145532705521806,-0.22263978265105067,-1.9931806657643047,2.182507316510133,14.872015793496004,3.432145199805472,4.397642646269883
-6.049202899549364,-1.525684290974585,-7.982399738463535,14.510089092011444,-5.794858259281909,-9.501468211505497,13.950650045993669,8.576933476155594,-11.63490372578773,2.6157712361951084,13.102624825590212,-5.13069017292632,-9.64429355557587,2.082861309175504,-0.2001279571327359,14.99281725488931,3.4805628942520865,-0.3112523376026122
-7.942899492784065,2.172488724046609,-5.977105415209717,12.616153291084808,-7.142646900320841,-1.6906925925501,21.06140722546436,2.0288885495838365,-10.757376896971714,3.6230332184380316,11.30898567562484,-3.306004889906326,-9.505936932552633,5.764992678959409,8.646010637898115,9.351889897866652,2.060404721071688,3.3771435810252974
-8.669090331843591,-0.3840089174846,-2.9000760097466367,13.062231690103713,-5.573332734969341,-3.648679710317438,14.695170448639306,5.0519444964340146,-7.742008365178684,4.041687599676621,12.053054046566041,-7.243676849988153,-6.936439318830811,6.7094676520980485,6.064386624118278,4.687687542395198,6.886679901859651,-2.213174025501676
1.1476794564773343,5.258256521303032,-1.5834354423588826,8.426269308580727,-4.504788391899446,2.4960035710246444,12.821023957458173,7.2944271860050645,0.43878626366366547,9.82900257230336,8.108121229150186,-5.12714022106848,-1.8379926062088003,4.428038758952651,6.996694446098427,8.519925723740235,7.9983482800079955,-1.4569194830328076
-1.930134359576364,4.35305630187381,4.808810353220098,-4.709819988226842,-5.304069093450536,3.4619729976773357,9.188932273439017,-9.114983404725422,-3.695529172919933,12.000613290785275,2.794514874290762,-8.57768668481945,-0.5581948919956332,1.5575074465079073,0.5053283175371224,-3.272788099115016,9.399428085214687,-5.584684996917853
0.45743808762577487,13.209324770414675,0.944350161344083,-4.763739252471783,-2.892814454894463,-1.3366478176269574,12.685809435175875,2.2111857689912444,-6.179693801370497,18.662260443409515,1.2880601570821728,-3.923253032163121,0.7117652438101203,4.836301453793421,1.8249576538372292,3.2945085801988334,8.843843685552045,-4.92830578005233
4.502060711784424,11.221372116557,3.2296400577766207,-6.384211412596679,-1.4701447534009944,-1.6457245243865284,14.131887315553698,6.213852490960926,-1.935296551682434,13.30993502119697,3.295749304376748,-2.1015263003252933,1.5814208366063056,0.10409331132033905,3.5336569422840647,12.010699438510233,4.37849413921346,-5.737828141724405
1.024222514031024,15.186424515938057,4.144991547512609,-7.813457230287431,-7.090672785028758,-5.277803181392006,12.35533220588948,6.701715093703662,-4.927181294883049,15.084703794482259,-0.5575947513378154,2.9422535989767074,-3.222577745536011,-7.560868486149843,2.9947306613938505,14.477286903458204,2.546503330372783,-5.864732250417778
0.08298783557508926,16.022408419286613,12.284245039240563,-14.227395086342842,-7.156378543935347,-3.248297093193335,6.477283314679391,7.678787322384675,-10.565217053476466,15.490493516989687,7.697018739492652,1.539951004796574,-7.645278040626035,-7.123212162441112,4.1145525443141295,14.40533265868224,1.6877463711910643,-0.9143698210156632
-1.7393468508137815,15.291945266130057,9.287706462496027,-8.535976573308615,-7.135919623864929,-3.4674072244946146,9.681594099541423,9.731061909505057,-15.919450375137583,23.609624427495746,8.039720230764022,-1.4255659785763406,-7.389562773384057,-4.9306425773493565,3.3775086804868444,17.752025830927398,1.7046235825968452,-1.0430954782271513
-4.637779638805988,17.682705398970526,-0.840693942524922,0.47154772003671663,-8.005693356527352,-7.888211074875853,7.710292682981776,11.491376638235852,-18.450554877363334,32.02025876226371,5.060391350634782,-5.954315697817531,-16.127334821040503,-6.256628365492437,4.885289439273556,20.806438637067796,0.35106633663869147,4.198519632989461
-5.389287970029532,13.233699266220807,2.5047917281211642,2.345747865149231,-9.472542348090087,-9.186299582187708,10.426868622590462,-1.8841990309848764,-14.935596274682187,32.81226996285829,5.985673412302525,-11.167396210976523,-19.01443301141595,-1.8236338234847178,4.341020030225549,6.380874465997053,-1.4939450079322265,8.07214235284
-5.75139454825301,12.78503700425403,15.710793686784495,-6.136130953056579,-14.368352898994612,-1.4044708669172614,6.8937124259739,1.63611941011653,-14.554169729036104,33.70076962928975,4.760755814731523,-7.299050525216721,-22.203106479746925,1.9229816194725657,2.819001806569366,10.218131123877885,-4.611610404140034,10.187192819467295
-4.5518906511900425,15.06726992561764,14.65581860338516,-19.700617714611283,-13.903736358468297,-2.3163527945254394,-6.697770788874515,8.28263609205887,-16.134146572630975,38.98284802944243,0.11605801302088148,-17.49417930659223,-25.497847539396602,1.1746185192494565,0.9052478016669863,8.782757368665344,0.08030318791084134,10.055433559946518
-5.599113345846895,19.787527615859446,14.086155635238757,-16.179449813570198,-13.742645859374814,-7.0389764812869675,-1.4408333949971257,2.03952683666732,-15.085374036456248,41.236666030864384,3.379848775310113,-17.436020677999295,-23.820257897573534,-3.8733542501768974,3.0920809808598317,4.4186022678938635,-0.9925656971752117,12.950433840291204
-8.111487220160836,13.37148779466369,12.048622315744996,-9.733041336404792,-13.005962308830096,-6.001800552660701,-3.214720437878074,13.57136693456847,-21.466357358036344,37.04435111440706,5.860561023056519,-13.862973225547083,-22.248340755070032,-3.455108337853739,4.203708308414033,12.848624419704523,-3.3378954245595773,13.891700226375924
-11.502753916275022,13.299990263651386,4.539225605753804,-2.314586118352907,-13.54897982478905,-8.677542070811459,-4.792703527483006,10.944119898807967,-15.159357243240585,27.08965497378609,3.6518578736580904,-11.560279769389961,-20.195947027192673,-7.9223089472878705,3.751908494748223,8.29124195545231,-7.541565704861671,9.949551787498844
-12.549897934429149,4.045559303452864,2.1049777504705407,-2.420343758228765,-15.566807556168353,-13.796565867230845,-1.9754447071813912,-4.865592708855003,-16.574593916035404,20.55255168939428,0.7576803729829367,-13.555342785040626,-29.967746098681562,-7.020837228299789,1.053144936932778,-0.26897244939112985,-5.595574008010315,10.987471460312673
-18.28396860106943,10.31570870909312,7.77324704357555,-3.8979099185411616,-17.496712072079283,-10.323462020683834,-2.477850824629633,2.2756367174146748,-8.914686160941674,14.503454433985315,3.9163873169042764,-13.598078356854757,-23.53575758163909,-4.461630316905534,3.6271313187737384,-3.652131620210924,-5.410128372200866,13.196858422485278
-28.50934485622151,17.364225770456745,4.453909386361754,-5.770737485211115,-13.38135851057394,-13.492752047022535,6.297980695129333,7.074496803702334,-9.953090521648392,10.407373437237238,2.6785763126158786,-15.594806412784376,-21.31023724054318,-5.518148369672367,3.0753697453345374,10.25138280611289,-4.9343463023232275,10.815956863215508
-9.338487951274871,-11.723408787218048,-2.1889037531033555,-8.331826874432648,-16.501983828043024,-11.97605156502133,-4.066298976921528,7.38256013089754,-22.61928499044464,3.381564456236111,0.9505338937545038,-13.295440725541035,-26.220702542664274,-11.362225669005948,4.3784727340372545,8.04268123854175,-7.293204527953699,12.438698542805518
3.5838269450369538,-7.610092582972289,-4.53790395040918,-7.381919277858133,-19.631696701902236,-4.1130919714113165,1.5861495954217664,17.067268179610664,-18.103980166766963,9.34438042319684,0.9783661884605261,-8.164855311059796,-25.27845664978227,-5.684960258841846,10.759213443261268,15.112832567079352,-3.795092256900751,12.108011670509347
22.07448315026275,-5.745478081358587,-6.40175618414609,-20.401770934489445,-11.441978016584962,1.0140443316155707,5.0910391479401875,9.565757506265388,-18.575225360507513,16.96766318865545,-0.948941595421362,-7.9180182824252885,-21.998958299065173,-0.7911673263790968,15.186302231311426,11.83268636336719,0.09122990894606531,17.245934545815313
23.086547246653744,-10.133425160124794,-13.249304782504275,-15.652633706348723,-20.058033111671516,3.307787356531655,2.835085093247369,22.964588110906533,-17.68500832834063,13.36072907150254,-3.6595159633153598,-7.9650211821385195,-21.16721450147285,-2.0519618292186808,11.50736898473318,20.761234794971102,1.7290767177962092,11.055385569279736
25.858883507151482,-5.734534170493207,-42.170662878969814,-0.0682211223599749,-10.908795746400376,8.823004977465931,1.7520381561923624,-6.018414817820666,-8.792342387185517,13.367690796418266,-14.965994182009467,-11.723888891863284,-6.376500475057021,-3.900791188547828,4.019421606468972,-0.09429737342752631,0.7278917864339274,6.036604805776669
31.368354728807546,-9.931775054614986,-20.996766812733206,-16.910922536751222,-11.631177890484341,6.231487467697427,2.6232107917684915,-4.725852381471622,-9.08472844565113,17.183998172147124,-15.922791337745927,-8.64758806401096,-16.103739383047245,5.478993144553877,2.6836167059733125,0.438797520030052,4.802711967623864,5.119373379187845
35.31830139560136,-5.341962196007344,-21.506059548125926,-29.55909228829577,-9.041154034079433,5.982701207047743,3.5931558123946585,-10.267626175394922,-2.1554040227841504,15.532298220471999,-16.88164312626354,-17.5840637082215,-12.750472981442538,1.0870722478176393,4.570288931825768,-2.63981138823204,5.750363235202043,1.7606711848467869
32.82611293532014,-7.590226143601034,-17.2332951033853,-28.5399328198004,-7.9237209107227855,6.90484146734768,-0.5139378101930552,-11.608372497902096,-3.531687104113697,17.104260060082964,-17.549590088792087,-16.560323998613732,-6.863507252603714,-3.599722665333539,-0.0862691792207464,-2.5916906543107023,6.695970142580784,-1.3050370298274923
36.00162068138206,-1.5395093703709364,-16.96766929900422,-22.642640256497526,-4.958281042050949,8.31439210403699,9.345237757629903,5.607634911423027,7.39246851060733,21.90001175693203,-16.657093841801117,-17.783584670199183,2.9245976004565932,0.11021083263602272,1.7024880211882112,13.571687276760535,9.495107305465687,-2.7104953654937334
36.64184088380429,0.7007360134273384,-16.705211592689515,-24.074427840917433,-8.445506409684462,6.500446827013853,4.166381492641266,-4.8116771951471815,11.671724374420094,26.111027243114997,-20.551918168821185,-20.667895985059836,2.3560442530460755,-3.50595942452719,-0.12212087015903617,-1.3183192435330842,8.874334955381764,-2.748630015920495
41.68073413113945,0.49782582632933625,-15.469338969251726,-15.94049840814776,-0.9044241475921879,11.326524941623223,12.660916069988915,6.255571670845308,18.77914430455032,25.049858437082104,-14.097122422431447,-18.963157739102527,5.493781138150588,4.302117066730268,8.697999621672968,10.844690708315673,10.009592128081081,3.072861556504761
40.47386216333462,1.3675458871357051,-7.009948019949701,-14.744998021485117,-2.354632319046239,15.468383123983724,7.777693807868909,18.49660810201336,29.789226126139205,20.767438895186515,-13.406241166435292,-17.063961845825993,8.627048917560682,-0.39164127029127815,10.48686349257567,20.665781574979896,11.045461143924836,1.5702303638939679
36.34183770419044,1.2591904713768027,-17.88993359122752,-23.027011956562156,1.2668234370694194,8.281414441730234,-2.1823317953253705,-11.155595435934046,28.88167805901123,12.580282943995613,-17.990991478747663,-26.786886896452884,8.045089004422902,-6.64950246276985,0.5569636868163593,-5.742239580922989,3.192825315259877,-5.010350225188656
40.320228868615665,-0.9990269119835009,-20.96043101938767,-20.76668352478415,0.3897253153873166,1.4846339338268049,-3.8400055148438152,-20.395365558538284,34.514074333540876,11.816804371958504,-19.062180837664005,-29.674610455346475,5.896607790010421,-9.100225446409231,-0.3881949406110503,-18.769199227150928,-1.438675144786583,-4.7545911790681155
40.20205532335331,-1.110059806314009,-15.73313626564285,-28.179140942367276,-1.9582952335659662,6.308767343643323,-3.1524054439924605,-10.101587458303717,33.50288038559478,4.512059631278244,-18.963597387453117,-23.871624320362262,5.599862677117628,-11.552396491581977,1.4990133676329473,-4.450000345379214,-2.848959318413532,-11.236874278289484
41.35872345833527,1.512143547438753,-24.76696953518823,-31.396957048909336,1.644992155731714,4.198929004700355,-1.5843544096946935,-5.176951126034534,32.78205492528867,-0.056355374936369884,-20.33200076461518,-25.686758364032187,9.596533878349554,-8.73243183949972,-1.3009945858578407,-0.4804918282799262,-9.04588052563043,-8.929575404052205
41.34901375253125,6.477056862468274,-3.822954357535872,-35.30298669191622,-1.398018440181751,4.0420574907459415,9.94635990634402,8.83192198010643,37.72303142835547,6.314917353109015,-19.749368974530867,-15.588450241357602,8.023426383019636,-1.9098161683003454,5.1769002062388285,10.131810516066771,-7.529166232058531,-5.547613280009396
41.34503618095178,3.1400904208708234,-4.7573281501142795,-30.81502375563999,3.3662613438818383,7.0101290955256665,1.6541684472987415,1.0652182130504264,30.65001511510099,3.11785739433296,-15.262544372014386,-9.59255344132249,6.544925721286901,-2.412781283805237,6.088782751634083,2.874849910652177,-12.654422045450264,-4.508966782177914
34.12032799724598,-6.350182325225307,-15.655821626282746,-19.690867138305855,7.441851041418996,7.2437619445577575,-3.0230302777315528,-6.601697185799203,24.356424363409666,-1.0535519883869036,-17.711531511480832,-13.167883956080912,6.821449762607337,1.1846945198369419,1.4347138680454932,-4.379972628031538,-9.57758890662001,-5.618279150674602
28.07365763635852,-2.9503997389541956,-13.6664962283118,-17.360395204808366,4.578898141103036,3.2781715233271145,2.750845597647827,5.1674389728041685,18.842511651339986,-2.390559733073985,-12.642978490885893,-9.712606963066783,6.900079504185928,-4.984721736429344,11.234590378801359,2.6254060883374066,-9.626881780729583,-3.5043341797003325
28.967027145414118,-0.039570839773668265,-6.211310486025864,-29.097077187618986,3.46918413655132,-3.519353231768343,6.96393326509272,12.446510166206249,15.866366668426036,-0.014149972243393094,-12.06877922715846,-10.164368836999156,3.558344663783245,-7.346538090393647,11.56232529113757,11.586142471568923,-17.001500304683766,1.0516458929768147
28.79268965230885,-0.6449851938740303,-13.60304229448263,-27.166061994416854,8.605207291818427,-2.1134081894896286,0.5341012840065664,8.887792244835815,14.549317845501704,-0.8579290959824029,-14.426400004519257,-11.886388575434996,9.491985775086093,-6.486634987082256,3.7851855252325577,9.12315631794984,-13.732336842869065,-2.0090473327217535
25.792985945415317,-1.6414958118382916,-17.67731762583462,-20.25883145200419,7.877649477610017,2.6131979946089254,-3.940764319822379,4.1594295693602765,6.590702928396373,-0.624866481163302,-9.65708197005049,-10.093413421414366,8.490051296292688,-10.412881259407733,4.700360132438181,7.931982552449649,-16.42112354759488,-0.0885274287052443
28.854942637432483,-0.09927232969763411,-13.062924129695341,-17.848125166067206,13.689284604875215,2.945580991587849,0.5707304395236701,-2.324497105773058,6.737083745315509,7.130535619186185,-8.112532225999386,-7.91046612649972,7.486472937888788,-5.453127618326196,4.151501048991857,8.69625256167604,-10.614431028518506,4.567114612711777
30.849708971241824,3.2981780139756314,-18.99839772022746,-11.437654430173,19.692599580063504,-0.5302368902867465,-11.5177065176757,-0.0169255595396427,5.808873046880293,15.377003597263771,-6.667688015404807,-10.806353793891667,8.044005377478765,-7.525520278862726,3.896503646683242,3.212741867279801,-9.300654741687676,7.270343341129978
28.750051158413083,4.742299006452039,6.02084227181415,-8.546995814359832,15.82908612550451,1.072673229370928,-4.560965070954324,8.347752844257396,13.572082276011804,17.2785760541751,2.490086649362002,-2.3745483571985613,11.530086324273334,0.557768154265645,5.790920152557236,2.8097724971007585,-2.9092520872651,10.950926047374347
31.638286946752963,2.9636343167603965,3.1072218336266175,-18.551218869009865,20.653952607296933,4.141048088692769,-1.6062377986096426,9.195136644248677,14.108734175174291,22.01515764832613,0.21989316388804347,-17.1858607592271,19.1168363580852,2.780933076168079,5.342548777232428,5.143581330162245,1.0402150428373202,14.534661652893794
25.354183572623924,7.435077595727154,-1.9575702048603763,-16.44986456041916,13.952283184945273,3.3037836343461686,-4.704304033949121,-6.947551492878437,19.723935195704005,16.69600038996083,-3.126527886739204,-18.911581295822472,16.546451308842133,4.02692586157853,-0.4759470955144067,-14.49321878242247,1.7665688058963918,9.525359772438605
23.472298002458842,8.976892623376278,10.553377200929198,-20.797821931655488,14.474598811129859,8.61969722191278,-4.47998840954949,-0.8218775436822607,23.97250234629406,19.583171969180132,1.4353573690537509,-22.78628578938713,20.225655446072704,5.077072331927836,1.616937571800006,-9.127235269969136,4.250437953200825,11.35297526836401
21.79346992330649,4.659436974627309,12.221711271526747,-5.715704270788525,16.65464147470949,10.909029803254745,-2.984072061321272,6.868739083424057,23.33898136247928,21.399253888890648,4.2374560654749605,-16.016777418140492,23.513944249911006,6.3220668236174475,2.6367420957327528,-1.0244148691731176,7.222355739081035,10.935369113965105
21.489706056765048,9.033802066908315,2.3638794533505028,-12.414988386318875,18.05119903627045,10.171848244740685,-1.5837328636954062,-3.7002023591276503,25.63621222139999,19.40989273385172,-2.630483730908411,-21.9432220336055,24.556040202023397,9.031522753645826,-3.4712629915461193,-7.177187905913481,9.901143937081738,5.049865551337482
19.533721531672825,8.525648448478705,-0.2697785296785842,-9.156815288164438,17.004319324787463,9.630923118241467,-6.040747930050392,-5.96577706710069,25.004947533868318,21.134794260808956,-5.496351792183332,-22.010613840152175,29.21162484559632,7.1507223929115025,-7.917831664346659,-13.815798128261363,10.919677646028786,-0.9323312077985277
24.5194936978072,7.139028118186229,13.598278207688747,-7.367043255574266,14.393149323675905,6.844874289971423,2.49285519458965,-0.6115707628966591,32.87135604121403,19.152026411902888,-6.020301520748202,-8.113324164227073,23.418198186847075,7.711084501621176,-3.573900506040271,-4.436074137065344,10.082724561639639,0.6061098876284201
21.798448812248154,8.09672931581037,8.225374267704005,-10.07296108890382,21.253238768845915,11.384221829213507,-0.8856195782138174,-2.8721734915187387,28.33689050313228,17.270293645532487,-4.49527640510207,-13.06431643666976,27.78175529887812,7.099333423542328,-6.357633819155133,0.3562126250842228,7.683340746594903,-0.9794787212352087
22.015358809067216,7.785496571631866,10.272132089871086,-9.754817873719297,20.00641718451912,12.018385267313187,-3.7736125801054072,-4.837291941553666,29.761411103802633,14.024778830866218,-4.925212527435056,-8.542807810348156,27.067897813323626,2.97174333258783,-7.3821309780202,0.7563877623049775,7.237287307584907,-1.978078016443364
24.291373192498483,10.990638108010955,19.34798195296495,-24.674502361658725,24.910934903990107,12.849047396785979,-9.393803556575689,-5.725648903463853,25.328532103780567,14.103098826149722,-6.431157452864633,-3.0449825852146315,23.522959913806474,3.336308016909979,-3.424641373973363,-0.7940967159832546,4.740678935228619,-2.7802953091137654
22.86474529682526,9.704296170954262,10.843236410491592,-13.913309101182207,21.708979542832356,15.634103256208519,-3.683453256006514,-7.0020962786427985,25.390170451395697,11.743488640870755,-3.348927992163188,-4.285762322978368,21.44408527736396,5.55632670152405,-0.05161212293013495,-0.2912665915427537,5.955403865632283,-4.460343354398681
27.501299910843862,14.766554778738243,6.926267345708721,-10.186465080922382,23.779876462372645,19.885317823006396,1.4432176721505956,-2.70949882262342,28.77462533797916,13.098423916644448,-3.1004766708754765,0.23508437065696697,24.24949475922832,12.561588864913467,-1.7552563355975312,7.343085846385757,4.924421008336073,0.7944181618849497
29.118908689582625,14.849188809414333,12.577686157550687,-8.122675068704766,29.268340737277057,19.840936024825844,-3.09593799934233,-2.7112763162048603,28.646042515266096,13.96865616766099,-0.02161739685151609,5.830027301804645,26.079920635160548,13.316826165953318,-2.871383309602109,6.776698955067963,5.8470936972260725,2.143999883345488
28.303550220880652,11.221819438580077,10.707456733182283,-15.632092985650498,28.40880755966788,22.532364624413376,-6.753862790131928,-6.9097601879721235,25.004604948127593,7.322858766339005,-2.8038504648555094,5.077120157419477,23.71285079784543,16.51363274811979,-5.353107260322812,2.4041729203590076,5.3054809462852734,1.9322060471315687
35.309309977237774,12.380738382871712,2.7805153275941032,-15.526830095407727,31.06491485748882,24.05334132909013,-13.241530359600375,-8.957187659739542,22.049773751724143,11.423056101016574,-2.1696505967925575,3.640554336386515,17.92973702350462,18.734041912833373,-7.833180451401587,4.088939682327021,5.936421031248752,2.0145508432581396
37.14772184712185,19.888535533864427,-2.120896348017223,-22.260102091271506,25.029648160347712,18.153815890636864,-4.296923935370528,-16.666169456820644,21.441904048672917,9.374482430255409,-5.8339379380667955,7.672810400875637,13.12536392118274,18.903871621594107,-7.381832544064416,-2.427032339894427,1.3922394716234938,4.832493535142987
40.166542800388825,18.705982641329772,-10.637431033885614,-19.71824869723641,29.15115114639677,21.533304773619406,-9.998609234707827,-12.45830507457378,25.134319365331752,9.478065291245615,-10.085675704354431,3.990136758414092,13.596854722073966,22.19903406663108,-7.612363056595941,0.04401587865027601,4.563835895353611,4.038295385744641
35.57657059154765,10.786295881222165,5.258757976236163,-20.791955225882973,28.39032836757207,17.785348292752005,-4.955556720092132,-4.341523155823337,25.509879815206673,6.460302669454659,-6.135623318639461,4.995110057142478,19.051415151812147,20.611645352301828,-7.059870317197923,4.2754065975175894,7.052721846733628,3.147648004176718
37.9287933546962,6.676570167433826,-2.18688727589367,-10.246474674467004,23.333319423713586,17.26170529961363,-0.5937060553512581,1.336427980471639,29.990732556494994,7.840852842962526,-8.144107860313463,2.484524032667567,19.918761826029566,18.536353384764062,-4.064138501888632,6.94676993956791,3.8784290079979105,7.04344993449601
37.16443918376556,11.650380019092799,-4.165254810844051,-0.386539685525328,22.76951064175137,17.22799519188752,3.672903937401992,4.57555183638083,28.713599754048918,6.783682632605645,-5.759362388482382,14.525104708360018,16.58969698342728,19.58654293095055,0.886576569688623,11.183145123380879,-1.1503151256235107,11.13579748207326
33.771762579124115,8.61767500603482,-0.38329111579421227,-2.247329290851745,23.76935602291491,13.387311239696075,0.2269830417223393,12.309550145230983,28.905303061948768,2.9958238021478323,-3.4735952503273886,11.33128556478793,18.830161974411713,19.172347350151206,0.6632913541636369,11.027399770863727,-0.9044207253254868,9.467577128051717
34.39144614602429,13.2037451591696,0.5652046081786155,-13.973197922271366,21.450151197614886,13.649961938927907,1.6663919996196124,-1.145561915196463,29.68706662748423,1.06719148788126,-3.7282010709610107,7.161140946741753,21.17148667954202,14.364080334461274,-2.2925205869944816,2.3778967939835063,-1.1456205227791783,7.898260432559919
33.74991868151034,10.662320815002406,-10.694827137943383,1.7412624716961638,16.00739066158274,4.14857744014399,9.748981119946464,0.5388944421802233,28.715243386698788,-2.713210706961405,-3.5933976238222014,13.050039774396353,17.656708207987496,10.337646748468565,0.808365953127723,1.6411227542964673,-2.0691569546858943,9.064612039673133
35.94874254497383,8.708410007263303,-4.377690450365662,-1.295905153169258,18.574232135201267,8.516357813118002,0.15798278974130575,0.9564169219235622,28.43141040573451,2.1039895336293135,-0.7253480152504572,9.173505024635755,20.59085694580569,12.659581152562035,-0.5810578645635522,-4.464390573792691,2.965768428122121,11.208796784094135
36.20261628003474,16.228911095529984,9.067323227907934,-8.045252141958551,16.260025549280112,13.374217323606729,6.487667967373512,11.82593095312601,27.76146094783752,4.483458101967926,5.071315436428284,16.137363975328118,22.25912236735107,13.810279661313212,7.016001661485885,4.862438103264086,3.1192176350308847,16.38162985319176
36.65992855248106,15.05952584644391,-3.2703562051466686,-0.43993735522560584,15.315034146012332,6.612618572549547,3.1517157307031427,9.318943091520445,23.67812830066921,5.597074828963292,4.226187432760353,14.507770276208365,18.36471061874962,12.520232491390605,7.583699142481892,-4.070330711808179,4.055409772898579,15.11031157779314
35.75806451831386,13.989489714473674,-10.43313524579309,4.820727304743404,13.493293983063671,10.106915449328675,3.2362688718179475,-0.9980618146297142,19.990182379991044,8.08158208363701,1.2315782517636578,14.83180357639538,16.525067864512287,14.355970405581907,2.879896292067702,-7.922518072552245,5.676756263660379,12.375386304328652
37.9891798886803,13.995416339382837,2.1300808031602507,-8.278963528776943,14.896590401641278,9.599095720874113,-3.7080465949437658,10.562861382878978,23.72909334146292,5.5892065938922215,1.55637653250926,14.96103703463196,19.86537990309823,9.258784486866995,0.8148908162878468,1.4114457042272273,2.709807255078028,9.641718207458943
38.860909007493774,19.960226352941316,-1.030374793951176,-10.246206056748692,15.13048149571384,4.2102552929232715,2.8268975416474964,16.169247352498445,21.3205429890036,11.889666024734863,0.02477816240240216,14.309567333644914,17.936402297085817,4.357726833882406,4.416091745433224,11.62666080641194,-1.5250070489329568,7.006961574295041
33.685561530980834,12.254744991825074,4.500027431415083,-5.084799180752466,20.640530633079315,2.7296040975239997,-0.7920704995285095,9.473332033217138,17.354547617116424,6.474807739262809,3.8635129142534197,17.66266650288702,16.402413342508552,0.23877971850132695,1.2809834674443823,14.129219735868677,-0.6798676046946381,3.982822729319966
36.916355050336385,9.531629003552164,0.2640705063955471,1.443620947114617,20.586877272296128,0.07895073397678765,0.2790256431998497,21.530264257145095,17.49535349852327,3.602631096850523,4.967046211513988,22.09064470056265,21.12300239732932,-6.4183854172165535,5.9605849172308325,21.809916009305947,-3.739221702883219,4.573262527535182
36.248277309690174,11.49793092504589,2.9613253681916145,-16.73538979848552,20.438499551047656,-6.085481692022704,6.137842076354266,9.565939713924571,18.03205870571405,-0.8285231606896453,1.5775974042012386,15.191010855268823,13.933950302078223,-3.5041753993526665,8.39616275305513,11.23086199355551,-1.6208358690036588,3.1141240418389957
41.0563254061784,2.626093210772787,-2.4474011501944952,-5.2262957904861,19.51193403888096,3.1819150740597255,0.9638217475445479,7.760551710708529,15.351413924974914,-0.5685972852245094,4.339919623207894,16.885985413365205,10.16763830062013,-5.276588087321784,14.251878004447859,12.27529435348071,-0.6724007592579904,8.68756760645245
41.8675437315345,4.791470172843603,-14.790115930642347,14.681691769583207,23.56912420414863,1.3182401967016144,4.776796697341441,18.360210905955224,13.457468471527154,0.6713735526658198,8.566501547310283,23.855246171869233,10.41012439421797,-1.4815297478874303,18.84016942705307,20.255607930797193,1.3522728849684036,9.574653416150765
42.978709285984834,11.939299835242476,-4.085791111000004,2.0701575911621575,26.457765261432975,4.046392151101406,9.275852766932571,10.407394679059124,13.424534382643401,7.285943213535363,7.616677769500738,24.575220235764107,10.755206041974603,1.4356186190363562,22.356360938323682,15.64021925922604,9.43378979983432,9.681678609059526
47.80767077366281,14.792112197628867,-3.6356130558740443,-15.52123620068992,21.927890726575384,1.1123083821336834,7.136651619507111,15.347874720428685,10.174481024568781,15.173438789875803,3.6389801806708864,14.456033719666994,8.566226817568474,-1.896290002271142,23.921539446121194,14.933249187261637,5.017238072821045,13.305569817590843
39.45945844037047,7.099824614565149,-10.509745176376855,12.396742929627496,20.526661463901597,2.2817609261334653,16.23055027559958,20.3884647968314,12.398914115425772,12.419564812236656,5.715640876723931,17.912161003855235,7.65193662749925,3.95269487636644,22.949763191654437,24.8730427669819,9.294404724472319,11.657115043866643
41.95768727548615,5.073632095565351,-17.48140897831385,-1.2864269602117275,21.179963314119938,2.671858678486206,8.33445079427802,8.73200968865756,10.820410217459692,11.719773002063853,-3.6340127379575415,9.357312951015793,9.574952831768847,0.2323135603875457,15.925356310456856,15.185659772965163,6.835422892734758,7.177740971165866
41.04412990368648,13.791744711989445,-11.171387024030752,-17.312150795439422,9.922856485745875,-7.1902053547173885,13.331608985970224,7.820308821805931,13.544618707293846,13.9529252289908,-8.491705533138997,7.346498393116491,-0.3132966009637883,-2.5103727256146815,13.785986567427528,12.922251697992994,8.285040976526773,2.7971615679075263
33.886506469237254,8.05847054656309,-14.333824439236746,2.6992480143003057,10.583942704872683,-7.7728914312987065,14.913167931263418,21.754960098023187,11.977710510020433,13.064180549575015,-6.708903167308039,11.977412698633392,7.382252569030669,-0.17371471692113083,13.21128975079247,19.059351699996718,7.881505651396064,5.351399013921079
32.49650570339149,10.530407823161228,-27.066269378891338,-4.827233569954016,4.803676062932787,-2.49423080944732,14.739293241850426,4.0508504054435575,11.100277587404936,7.68626631839828,-15.082672343019102,7.429539014980674,5.415170767541891,-1.839859166429008,11.759819392261246,5.7644579074442,6.01549981934092,0.6800599880974172
38.827061359981556,12.320702194685174,-15.481375203805037,-16.355893409907086,6.058930066356961,-3.7567688912149038,9.782577340827249,11.935385049954157,14.525698744459792,8.268493255495185,-12.909507035953535,9.425809977011077,9.117798586825554,1.3780702713553001,10.017517051978327,3.5067376558038905,4.542571061557341,0.40439321909371273
34.713605160111285,6.2026784132406885,-12.392030600201819,-15.577701267717815,-1.080116703285988,-5.994028928603559,10.980667824648972,12.888504554723655,11.609317981617163,4.556728019875255,-9.564484702346657,6.3449904063449605,2.767310721417193,0.495582420881016,7.007798536739442,6.524335068485751,3.7557416750959765,-1.8233780719490618
34.02330021305954,12.293826011857298,-11.255053829280453,-14.309055301047184,0.9650266866925676,-3.834851674841534,21.94688011116795,21.07054765131887,11.33568037612216,7.488563770917464,-7.977271500839322,9.906044448447664,10.973524011484532,1.567477023773785,9.664354700710991,17.942247038409572,6.975422441691677,0.051501037089774826
33.72851340121202,8.914119313571858,-12.949250297773709,-4.834804983105688,-5.188623587738796,2.0371402208897678,18.26675653135525,16.461642464509534,12.43526365547574,1.4386852839606163,-7.1712235723720195,18.15585206689924,7.075937195869617,-0.9727183076042039,9.197978341270804,16.275718399521256,5.217147409428113,1.1461173015285606
29.434396264318025,5.634007084818295,-13.76351056804903,-6.686308739822948,-0.40006029657095254,2.7350719431800954,13.124067706920252,12.245547230966535,9.048627184094311,1.7392779369377855,-1.3844674174268192,5.215146337718442,7.481107891039812,0.49231791671167713,9.319651110575967,10.411549666210906,3.9497946753672597,3.2182825602477223
26.707183065210394,-1.1598591962125369,-23.561150073956206,2.597903695440685,1.4634038943793648,5.387936077130099,13.061856275279554,2.855732571740406,3.031287281950057,1.8471903411593438,-5.949201073083715,5.654800940516288,8.673410207983228,-1.2640703438567389,7.783230642711183,7.576358311734885,4.247642524478422,-1.4469933618109216
26.5231877257676,-1.018115807622216,-19.294824867774697,-4.033171343117795,-2.8208537057685774,5.796425381852093,14.07612729549355,3.2337930576388114,-0.5385387584298655,5.863961854207554,-5.630749621175845,2.482402232710892,0.8871183798047433,3.7192221168620225,9.764560968076658,5.914590564516265,2.3997384559153634,3.65441771986478
28.19853625429574,-0.3861903735793959,-21.179568985117633,-10.758789398326186,4.032665969511676,7.6715076108188525,14.409012221275068,9.76635118564333,-0.7819208574605412,4.902649513581842,-6.386167504594511,-1.8605736541942317,5.899952205210681,7.1413020931849776,11.161998966975533,11.676283721922243,8.074238836663776,3.580850496098801
27.826643132696738,2.786710606409608,-18.082281039544924,-17.285786609813535,-0.6325573734394432,11.794416370476133,14.744084399167223,8.097676623603206,0.933938720257828,9.119566850194989,-9.875568394863427,-4.932651085781288,9.84455184408112,3.3380343693635997,9.241108064073048,11.57992574233456,8.575675999481053,3.2151597631779847
18.082896071557535,2.9340746692803403,-14.495097294410995,-8.086391688239715,-3.339683791900491,11.622052829429611,21.819695474659135,7.4075530339257,0.019128030856983003,6.893348559279898,-4.379955404328122,-4.097039427561232,11.451401458396866,2.6611521313203816,9.861331020079469,13.53573293636313,7.1267923671839055,6.56127954018293
18.400897954217406,-4.534035444575061,-36.49251388070728,26.507702094869494,-1.9401747858036273,11.353667661391409,19.8152575557681,7.207646462841324,0.4776120743698229,6.720121070219003,-3.864317188262465,0.5486347675387062,13.943236794484928,5.305982623046524,8.042099667682873,9.145077809029456,11.442584847657827,5.122952019962633
21.0653945266372,2.257688419939914,-13.07723260205609,-6.180510471608531,-5.711451009543488,12.161119705065552,18.69182460970827,11.69719317898957,1.430464721974431,9.185731178475542,-3.738671709984667,-2.8121843174921395,17.906030168609345,3.264601963912657,5.8342013826456345,9.833852969099567,11.659655555434293,3.880686474496712
18.55644188756594,9.930108100054708,-15.636939833501241,-1.0711112136715002,-4.887677320744686,15.21626593037557,17.375124462524376,5.250906938499156,-2.298184776689247,18.196386214999077,-0.2919565777391071,-3.827745920061931,14.941237376216488,9.03721076490807,6.65563018340051,2.320541686177407,12.172635091884123,10.158776908567857
12.924549797512775,2.564982097059069,-16.43671524115541,6.191013985233338,-8.84393914737172,16.61275897579835,6.587633299261567,13.064435652974607,-3.0910472026702536,15.880614885890488,-4.168797234032532,-3.376939810476779,12.959152409199792,4.068847351697884,4.549235345159646,5.843653674654329,9.856506491409723,6.867081292412233
11.591399112521572,7.701761217694306,-13.132650546588597,-8.027119359159743,-8.20503928768953,9.416859718678442,11.81798136506168,2.32472841262277,3.0558263554697973,12.199399320736681,-4.6267741156796856,-12.495061135997734,12.155103406321224,4.668362375848412,4.397873639535073,-5.866809212981705,9.887159123515382,3.1853887258288047
0.8845944699757453,6.687783163696048,-16.1740011399647,2.17381448959674,-11.27183495723196,6.128717537564238,9.432954229122576,9.360413192574425,-1.6312950978414804,11.547228005895892,-5.572128816541947,-10.771613108146628,12.822071892120732,1.1676467270272983,-0.3415553849690305,0.0020867679007405826,7.479391288838146,-1.3746288994443017
5.999517000252894,5.284818690465729,-15.013608086419428,-4.026932853810843,-15.309862164835025,10.16631022490694,12.323330932345455,-0.39940245897038906,3.4533455265145676,5.916054038663109,-6.90713577327076,-10.218469041356007,15.057719587303708,-0.08554018749102354,-1.954123713274674,-6.237679153039746,7.0278272906203245,-2.516071324489957
8.283218697612938,5.348327006418538,-13.948288854732303,-11.492225674175724,-16.99871388643502,1.021467521573788,10.820951251534641,6.834806066004199,1.8055603411789427,6.731718479210693,-7.459834522739623,-12.886413122463392,8.217352507404588,-3.4857912203049377,2.8804968035529406,-5.9335471379228775,3.258973594175318,-0.7272684214643554
3.4384358129285815,14.593229827854044,-7.118455942739187,-26.374316726866287,-24.54159982383277,-1.1883626139163397,4.242165814768928,19.539370963668333,-1.008192927185732,9.79482170968868,-9.964574503637333,-14.283161307624653,0.015927560582259304,-5.5174230964582325,-0.2910759166373911,3.844145793254402,-0.7020992394726893,-1.4770956384231937
-1.5038008194206043,3.52684802016109,-28.11824897196837,11.484145544071044,-20.750720617019248,1.6812746043434377,9.481717286405777,13.006828575337984,-1.9605613862654785,6.316048140733244,-6.803985052182897,-12.162557929377265,2.953626707146057,-3.9343039657284606,1.9102304919466953,2.489546615757293,1.1017522677038816,-0.5663129432647409
0.8781675951781196,4.962138843390431,-13.274698600423429,-9.73476905768014,-18.02857553111528,1.6223947316140972,0.9532302364889578,8.81948318529091,-0.07500821059370821,10.846279963707422,-12.333687445761168,-15.606745526822479,2.0888027542661725,-8.013916097036176,0.7928376664003984,-1.5011917012973388,-1.095226105686491,-1.1200115729495614
-0.9396044629214586,10.402833710725744,-4.678168381742253,-18.545413982467352,-12.078193623691483,1.1740476960504171,5.61019235231462,-2.7884963338251847,-0.33212218031286156,10.006283652084262,-11.416665909283726,-12.017848678827209,1.0347750028808065,-3.49822714935595,1.0442762200460773,-6.663273982667484,0.5196031171804734,-0.3061613399221361
5.54273910678242,10.278427173109897,-23.910896879612288,-10.260038558933836,-15.497396349974071,3.8518593051182712,3.6280327749778927,-9.805265827265124,-1.8530310577339613,10.72963366621438,-10.595923509542668,-16.630448257525043,-2.356948004830844,-6.403104970114647,2.6645038515031825,-11.727220973644956,-2.0616780057818556,-1.542828114980968
5.480884985376569,13.573382736199893,-18.04226748827303,-7.046772407719985,-8.949927494679269,5.163519193177948,2.8193201439921918,8.081926062217832,-0.14552954406708807,18.094405520061006,-11.140945940740554,-12.842702209602637,1.7770402622049772,-5.204935416078996,6.727712047926319,3.8150210107128917,2.0009549240550495,2.2989575109140086
9.616845863660082,8.275748155095194,-17.346058877315237,-17.401663416682144,-9.623529013883743,1.3003197347020503,-2.1871727210651297,1.6535190635330785,-2.045713454378326,15.596312353783095,-11.586802834351857,-18.81892434022692,-1.7978968862795561,-5.274894100828318,0.44069187923178355,-2.224763828780416,0.20732491631628314,1.258059801531565
15.997126582455447,18.311617988533584,-17.427552768207896,-20.914070414676452,-3.650784866254387,0.7584271623153072,3.159505146905227,-4.480796139230527,2.9933959493311164,22.76677169910767,-15.839740259346987,-13.953306000918197,2.4457880400691963,-2.2183833223164955,0.5028706558355172,-4.943924069794594,-0.606513957456789,1.5845272969089494
16.711108478452758,9.793703121348463,-28.833666052908775,-6.157866483643133,-4.5084496257018145,6.076884203027025,-1.844140255100788,-15.39928239435482,-3.876205502459044,19.29284147824538,-10.715900561489809,-13.187456350977461,-1.996100154541498,-1.2112645969383298,0.9570787312456623,-13.424702051837432,-6.690646279654317,3.7666013164764727
16.836651249679463,12.507559555655739,-23.34119384974452,-19.03202046863542,-3.7002897226421165,12.079770798571476,-6.553469064471148,-21.238568779697957,-1.1698783618325095,18.846471639547257,-12.817037703917556,-17.888559086771373,-2.818727203027631,1.5551119793769166,-6.009351811160908,-12.13958973336851,-6.716764872859283,3.0190046944589968
17.93593515354516,9.363026634896078,-29.954368196748117,-17.05524883520446,-1.616929340551609,7.438727991291381,-5.59736004410394,-23.561240382243312,-6.270766750390948,19.376714521711552,-12.182001283743435,-20.634601731017174,-6.467548780615193,2.3697496596497953,-6.822044967784141,-12.416957686797453,-7.325588200756133,4.029260576033806
26.551684683932525,18.817359784979047,-37.637749015418166,-26.985608401363933,-3.336567603629131,12.07587244229306,-10.20650837805439,-18.16807597857206,0.15729257353757475,16.293519871699615,-14.377222611402154,-21.327902781633497,-3.0791817528834997,3.0881422362250164,-8.903039998113137,-10.741200003129489,-10.470264647288161,3.9652456689831093
29.10912964445216,9.327050219251278,-41.020046643700454,-29.584363125221483,-4.659921751331524,6.6549080979732045,-19.01376131060244,-21.660953301524252,-3.468133130730319,8.9131457972247,-16.765883939171548,-20.847358632468563,-6.130446630700355,-4.8835953300847645,-10.78752290620324,-16.878163398434285,-14.002318950314216,-0.4934524297724927
40.15892907055922,19.076214418106417,-30.72600571700616,-39.20704247409113,-13.594929984032065,25.3559793708106,-0.7686980839216346,-10.211445926466979,7.755604902211482,11.102852549030455,-13.39080555326857,-16.16555660033158,4.300779491006693,1.6970745823154925,1.196536758651746,-6.413485455520657,-12.159940896975794,8.817456334340447
33.52846473074606,10.564219134559613,-44.06077246261006,-25.286618514332183,-2.8950897715755595,15.736814091373867,-17.38638245745966,-8.33170901513142,-0.8400687831413087,6.651315387842205,-15.482571291255063,-15.58338242500833,-0.30162326339215895,-2.658523346428538,0.19320625993798934,-10.109426802845691,-14.904217868132662,9.04601082269013
30.21380755722364,13.088324332247002,-41.472853594373476,-33.33144611133311,18.650391828089234,-4.428945774533098,-24.041968590556987,-26.76415654866847,-6.305665632779483,5.4218252772479865,-15.912111222973717,-14.706216237656093,-7.828158504403607,-3.4970493193145327,-4.910715245935421,-20.34875601595035,-13.44595256892957,3.610181698034145
39.88273161577204,20.007740637833162,-40.833509182372495,-33.84873910954207,21.060574651812995,-5.2580994513050445,-18.196412443902098,-8.281415515216489,2.2963982617800696,6.340005486199573,-13.995767740575541,-9.432412045638362,-4.118520893367151,-6.677974076227732,4.537344444371285,-4.416202233320544,-14.425872079856202,8.232814624823252
