Fp1||F7,F7||T7,T7||P7,P7||O1,Fp2||F8,F8||T8,T8||P8,P8||O2,Fp1||F3,F3||C3,C3||P3,P3||O1,Fp2||F4,F4||C4,C4||P4,P4||O2,Fz||Cz,Cz||Pz
13.588268108342394,2.96437169985661,-5.721939996356909,-27.803293738792043,18.316813429444352,14.046280109706379,-1.5622468384272388,-31.083909640478566,13.020608027295879,8.791465268700087,-19.05086194553852,-19.733805277273813,10.254470372537142,9.037705179106384,-10.571792348134803,-9.003446143395024,1.1724647278318416,-15.186555599418696
36.06712111985467,-6.001772527485482,0.6382676978470201,-54.47383190689091,19.750365495331202,24.25342433100091,-14.557168028974697,-41.24811585019157,37.195788694590114,-21.377128349133898,-28.365523883169836,-11.223352078824853,40.18895259532301,-15.876904408939517,-6.924209442375674,-29.18933279697427,-14.25200476347234,-60.72343230509158
32.76852873336245,-0.7095624990244467,-19.564723387190803,-45.503897219328216,20.209064115701743,9.366039612433092,-2.6481028268135347,-47.0197928837283,32.46402288916569,-20.293700082577153,-28.795123251023597,-16.38485392760703,32.72083011806563,-12.078451844484064,-12.943685610644003,-27.79148464547781,-3.7969068639761714,-59.28897702153226
34.06409002584513,1.9460272121119964,-32.24845006655042,-49.72249241635261,11.587239618770724,-1.5138508872707597,2.0357788298415116,-44.49286780579402,33.39613718007699,-19.11115227918858,-38.30887625904098,-21.93693388665159,32.28438506244572,-14.333204096489027,-17.204148429983665,-33.13073278055971,-1.8377867602725395,-77.58366965993577
32.141225040458274,-23.133228684243452,-23.3502850226009,-46.32864729029985,21.131322488187134,13.293785297102419,-38.20118458071421,-40.210642498343454,35.304545613647015,-21.735878935803704,-46.26227910715373,-27.977323527230922,29.016195361044463,-16.879467597391304,-22.14692394796937,-33.976523109586864,-0.07375707907857265,-79.3767300595807
26.609339346477316,-7.977729512844846,-41.699184592135055,-43.72105151736797,18.07904384216588,11.79613156936539,-13.689125299535064,-55.658049432999746,35.45481603363305,-22.406158838966125,-47.28434359478961,-32.55293987560049,32.193755306350766,-16.787624777384686,-17.4201737051591,-37.457956144946216,2.4717391835068825,-86.93436213650764
28.210818086753576,-23.29186582552255,-33.97410780325796,-45.22018769050134,13.85627687162942,22.509257176735986,-3.7259035211087586,-60.46375715191796,22.909265095720794,-10.379727011392678,-51.92229058558733,-34.882590731118846,39.277971898353684,-20.991491270220834,-12.789553245801962,-33.3210540071286,10.583911059144858,-88.83084690737677
27.08226036153688,-34.895615340380765,-44.70706805795526,-40.376792278791484,14.224744231621154,17.6007127257101,13.466380619845374,-76.60097874227307,26.37925093179257,-16.321201202101026,-62.2271147717739,-40.72815027335529,36.1084803034539,-14.744865767692627,-11.965937848417509,-40.70681785257727,6.000741090520972,-91.02354031443835
25.665137590585495,-19.351307115378162,-52.901733765588034,-54.97261842020075,17.328863301667354,16.01610372799975,21.090818447905015,-84.34306784076243,24.965998666068366,-11.909924951848804,-67.35898617765989,-47.25760924698539,37.43160599806451,-8.399587469234664,-13.874973239064234,-45.064327653093606,7.472495538998056,-89.50870573752658
32.5533558258254,-20.80042616304082,-52.79637933213255,-60.78468388474167,18.77394873963125,32.79472343152405,21.296101486288293,-99.70610633589635,23.454718071384498,-5.349237380586649,-64.97429507163505,-54.95931917309403,31.528426103618937,-0.7838834565602841,-8.946081560734026,-48.63979376491573,6.991220097525139,-86.43504088705743
31.82872529519938,0.01525294507326258,-61.578846535289934,-70.02030565066806,25.884242612105947,28.873474356329695,25.899035943143176,-100.22902165096424,28.290799509936,-1.033826444665877,-67.86637813025293,-59.145768880541546,28.555350756946424,2.9262649312975846,-7.2378906308390105,-43.81599379692944,5.728788286867875,-81.4121387212193
32.475776866621324,-5.245036768600084,-53.46756984579328,-69.49578292449206,28.503250166865104,34.81922502270507,26.598931772398245,-104.66230250447963,29.513132028020596,1.622164008042942,-69.00404731713682,-57.86386139102729,22.164631244942846,9.566777312696779,-9.824516180546052,-36.64778791974438,0.26716012268105604,-78.15121358422911
37.131285163850336,-21.932819260740207,-27.290732530228624,-88.11789546380773,29.65827031495489,35.20204560476955,33.16177887604354,-112.81083081236255,29.07484802239514,7.79450333947068,-75.41882557427512,-61.66068787835085,23.97754228977559,5.270131384980144,-7.7213268154789025,-36.31508287601146,-2.4599836152844707,-72.25788351647284
33.00209870088318,11.964386241159486,-51.21351157298845,-92.48777927057569,30.32578825283024,19.47489052742826,33.86886216137723,-101.23694097151731,25.999346771191693,4.982909431181655,-69.82545482544413,-59.891607278282095,12.704699458856103,3.7082866217303003,-6.592352375041261,-27.38803373556709,-5.773024523651779,-65.88083112068182
33.66265263599549,3.9645165005705625,-56.680245932356186,-78.89451772009843,26.50174334793745,14.981914624756547,29.208681708546003,-88.105159184503,16.77092543260828,2.4647757623806648,-64.52896842612272,-52.65432728458372,11.393331642272853,-1.564292845233286,-4.679634767047247,-22.56222353339588,-5.375040100960359,-64.68441347984057
38.3316911159219,-1.3030235457872585,-48.18326231783878,-83.47154647150921,33.42064878919266,12.543275151883792,30.119113274348816,-93.63081859854618,8.03028530695855,3.8533464936984663,-55.13492224633264,-51.3748507733641,8.812800272991144,2.0501156406591097,-6.670627175117807,-21.74007012179404,-5.172357621550985,-60.46558429049861
33.9230798084172,11.591507883032946,-49.844091303554414,-77.60521373361169,28.523471448337155,27.686534854815974,7.888987434090447,-66.73909637835386,10.031463296393309,5.632850428907375,-49.749058895705204,-47.84997217513529,10.138966494347283,11.62165332313522,-4.75259258088637,-19.648129877847115,1.085101038275981,-49.61120664185151
37.136291899398536,12.764662417379757,-49.455582208900836,-81.80370523967665,26.556434155624476,18.02821381985664,12.323954988945733,-65.24354419967756,14.668840426525218,8.193825715340594,-52.570807317496374,-51.65019195598987,12.442098423321902,3.8099930982811543,-3.5153276098519104,-21.071705147142524,0.9947860860823909,-49.50455326573547
24.533466158550457,8.856987902621233,-42.427886152334366,-87.57085212713594,19.413847889628244,6.908488500249714,9.048691739010838,-64.43691753286804,-5.694750979534131,3.9188756126686233,-42.31092216777783,-52.521486683473896,1.5618235065313613,-1.951102542654084,-2.4704271581494446,-26.206183209847627,-2.5135865922892213,-44.911207119816424
33.71282573581347,-26.987571149568616,-36.476027580066834,-79.18380699710187,-2.865473971502169,10.245544367034942,10.85655881811081,-57.97162117840887,-8.96885275642179,-0.35605120829777803,-43.969922778873226,-55.63975324714703,-0.13823650934582865,-10.64230665482918,-1.227144732555299,-27.727304068175265,-9.147059592521604,-44.32757737878091
27.07613068752955,-29.92445057109709,-45.56512438968208,-72.65848225623121,-20.06647675817547,0.7928430366113268,14.818017895118826,-54.92997704961975,-12.14594008061702,-12.150693938616413,-40.946127006465716,-55.82916550359505,-10.236476062136873,-14.93941747311407,-3.2033866892087968,-31.006312651745265,-13.436814755333616,-42.96861586352268
19.565002104673148,-29.739434590898824,-36.68691957623128,-72.68248675979996,-18.321859192204037,-2.211072260867205,4.331443570005124,-50.72221761185182,-9.854866135722897,-22.480633678908806,-34.02092625554863,-53.18741275188741,-8.42008683861216,-17.284007609588787,-0.6840781064122883,-40.5355329404442,-18.41025676146287,-44.25251982363772
6.784825403508911,-21.256834542484746,-40.50600084041099,-59.04069999396418,-19.70236851982105,11.683142422393912,-5.270712125868625,-52.575156072167246,-6.001969859958635,-29.685781965636394,-30.32346083613583,-48.00749731142854,-5.724395488397548,-19.434045786698732,-0.11451759511759896,-40.59213542538808,-21.040009828386395,-38.901975509412516
10.41559952840144,-9.847995645657575,-47.06133416000524,-61.12812787951629,-24.110445002458725,2.435776735933752,10.621484415430935,-54.04351622866579,-6.153772159836924,-31.12947279429997,-24.092045155853796,-46.24656804659304,-8.985446170104915,-14.455962076808142,1.8257689201957916,-43.48106075318083,-22.790953625615266,-33.94850696424698
10.14449211736877,-25.88464242953918,-35.84484780129739,-52.479543514794,-32.7180794273605,16.141244509519126,-14.98499732642994,-41.16237013643325,-5.329758339266089,-40.776855783887775,-15.717427054536255,-42.24050045037552,-11.269541976012128,-19.439990783187035,0.05868842058247914,-42.07335804222535,-29.327250038364483,-33.10327023701763
23.549870980962112,-48.175210351065616,-25.411564367185697,-50.966328664931176,-35.075991291271,17.83803266089741,-6.307575807777269,-50.94412449922093,-2.7486968086055192,-46.5184636816705,-11.645130078004645,-40.09094183374138,-11.600108400164181,-25.01111872647336,3.080572208755644,-40.95900401962652,-33.03160767135401,-27.577225797769273
10.103745593657044,-45.46938524630406,-31.28911486358792,-25.63098978892326,-32.64914406152841,10.553486452490027,-6.999089835067309,-40.02886024209265,-9.250627284640002,-38.78393017668564,-16.26986106559977,-27.98132577803232,-11.539672395534986,-19.64586248146458,-0.43677133336170737,-37.5013014759728,-29.70475540655017,-22.83935933221333
1.2518770095447422,-27.044812620984963,-13.047243618226645,-39.9510629543302,-30.02754845770238,11.572978667707126,-1.5317919932698851,-44.45239544842057,-3.546193158969732,-39.155707721608536,-12.208646665208011,-23.880694638008237,-13.724996236220914,-12.817152736498045,2.006952982721196,-39.90356124182273,-30.967975400871104,-17.327294394799694
1.4864871553229513,-49.83611258719793,-2.522421163556835,-20.194954368722634,-28.090220543028963,9.079873022297114,-2.6986839540349647,-31.01120494831797,-6.729497175737782,-39.040006695658896,-9.617992129774933,-15.679504962778275,-13.761485052685778,-2.2789912977506055,0.25544273152666186,-36.9352028043088,-28.129739241432844,-13.580274793870874
3.6785240879951537,-33.275804475328414,-26.37525639240787,-12.066481613573927,-31.72014310353991,11.37502523012504,4.344368478929977,-24.022167108018557,-3.761278312999817,-40.780703982098025,-12.111330038212465,-11.385706059798189,-12.137431098143157,-2.9731421249427434,2.3167331374594013,-27.229076417009598,-28.514387290489825,-12.965646638467401
15.83588285014288,-33.90787202835189,-24.643941371815927,-8.631935675145733,-30.370375275339256,21.974059306084705,10.808321651361679,-18.309517463716396,1.4521228247376134,-30.11986023680058,-19.68875253170169,-2.991376281197482,-12.075543437744175,3.6552358434985956,5.456505879775621,-12.93371006727084,-32.02427107194646,-6.6943462638742375
20.087154669866997,-30.833708248976546,-16.664751932079604,9.249614477587912,-20.23235947759765,21.15005472077187,35.05297878518462,-12.603795953657595,4.125445976997987,-19.948387466600067,-19.557183775524763,17.218434231736097,-4.981944642936995,12.430153010504648,6.549809433742755,9.368860273260438,-24.108396007627682,-7.559665798276271
13.893193359302588,-20.537781014669008,-1.2658373418850815,19.507537873585548,-12.8298024725948,19.93827674133288,50.320262131840394,-7.4910344853279796,6.602445962984309,-14.660973882466728,-18.259776502731857,37.91541729876076,-5.8959304395175085,19.249855156927282,5.694395342864857,30.88938185484667,-19.806062252501096,-8.139740407395763
10.828377298308316,-2.4342874844424216,3.681394834411151,23.02077664677205,-2.791621053408377,23.221550706919693,40.49678245152978,11.775005214853024,3.2189430044359923,-2.831753399366285,-11.011381652142347,45.720453342336015,-9.446328884835232,26.750972412015436,9.531081271679463,45.86599252090649,-9.449161216076131,-11.071447763657712
20.56077277184363,-6.797267731731546,32.35711345399768,15.29710123296482,-9.747112501428546,39.49603609498685,47.7708160675264,10.818722993250589,13.115823457369345,8.703143040346252,-7.480191810418802,47.07894503999384,-4.40250363007921,27.999676695247295,15.130223772236565,49.61106581680386,2.4700438185578992,-11.37435710903124
23.36346386294399,6.7057873026843104,29.877629190505488,12.547726827271177,-1.5669707781541675,26.37820758124615,47.92337058409952,14.054483005073479,12.65988368222986,20.43191536569869,-5.810782383979404,45.2135905196736,-6.4873545900738545,23.581786289694197,19.171545748249592,50.523112944269386,8.334242282901624,-12.954887368440883
17.771529713212786,14.148596719592906,33.3528446491398,14.284398755051292,-0.8102232193855219,16.388024401688938,58.14232988478762,18.650144535667224,6.441007172683823,31.963844187346275,-2.780516624955716,43.93303510214186,4.611924461709814,15.840959227946177,21.752788213950343,50.16460369902725,23.280377410434305,-17.570982546280273
16.7733927340635,9.671564638636141,46.689031411045946,13.671112774421033,-4.058937124619456,6.302710844515406,79.01375638529728,14.253925394491084,7.154670136872464,35.09559123152448,-0.8309029745812566,45.38574316457196,9.168466339281494,11.417794595134058,31.174939457524268,43.75025510762068,27.58157950547472,-18.58201639235478
23.787014613478565,-14.245083268652847,63.44074113484092,11.196198546706512,-2.4263451311408644,15.653742667957058,68.44727432337095,10.924515483770364,2.5936253824484057,34.22166701709033,7.069354603736578,40.29422402332036,8.842449005341043,9.921534736974007,33.86365097914832,39.97155262237111,30.612985687216565,-14.132587358509191
19.378443742323782,0.7978564397013841,46.302680044825465,9.301143782794838,-3.725152171090167,17.389851680399605,57.98643818430294,10.322043349721667,-0.6990877875990877,35.10379073359407,1.0956772375943586,40.279743826279976,4.41513083401404,5.687904650183228,40.17071752215888,31.699428036855537,28.272965146444974,-12.52369434756724
10.96960503448566,10.073016839035883,37.65827069549583,8.181311273919228,-3.1702133759491793,16.100875673478406,49.09621260800024,8.247177321404585,0.6945226889525262,25.82763091528877,0.7795589046135234,39.58049133430678,9.363276505838277,-6.361423538497917,43.26016838703421,24.01203087243771,24.467821938832213,-12.290557769804849
4.712870860503212,21.978844903658675,37.116845775528134,7.934409033942785,-4.86323685390076,20.67359126818031,35.917225790045684,17.20006338070563,-1.8194526633849737,31.58879766741414,2.4099549487531746,39.56367062107642,14.897686055354013,-8.159892527737673,37.85855345799385,24.331296599299392,19.58818161732822,-6.694875637376732
13.40133809609016,11.807817008254968,35.30322614423122,3.872918634055729,-8.023042277815573,12.06465975746864,48.82112154504533,9.152889341299044,0.8411282003488063,31.097817122778824,-4.267244410139959,36.71359896987118,11.154924500318756,-1.27014994925218,34.708288671793895,17.42256514301611,16.856744315820837,-3.2563716429260765
7.0540117119762655,3.7789406903950926,36.80728972174427,11.622134281661708,-12.64970976179945,-1.7180651034581622,59.09660490356461,11.547443307952392,-6.363053877929419,35.97587419685923,-3.724502144289719,33.37405823136474,0.18580130132957073,9.034163347694045,34.49303933748156,12.563269359633725,18.71494834388865,2.5171368846934143
4.225791906049743,-1.131315263547819,25.9061046661483,27.666435669201753,-3.899341388733192,-8.369790454235453,47.70049115261316,17.74296587461518,-11.517781111006979,40.55873418542388,-2.602584880141656,30.228648783804864,-2.677421252893705,16.014541391789372,31.548714206837914,8.288490838405933,23.307291526296464,5.938009315723789
1.0102971266197152,-0.18863929200545293,24.181996028988745,30.91181168343506,-13.217806488602324,22.480957127621576,24.007991935504734,19.829150719229922,-2.6111772494383754,30.295308452643702,-1.585133792742731,29.81646813680416,12.233370392621744,8.537880958021443,24.019870401817474,8.309171541173294,15.1061881384017,5.150683701428385
-3.178492425185013,-5.893323790263981,36.12718447868546,21.358325370797083,-16.7766918474057,17.786102992427615,44.3676858819719,7.454251633201267,-6.0108571422232995,24.81471787606858,-0.4768671479209523,30.086700048338415,13.667696895124823,13.655256342136393,19.13323134227969,6.375164080534429,9.346240662234797,4.159066663492453
-9.903175254891117,-9.163297025731922,35.95999136915464,26.936155622194725,-15.064359875811949,27.83929712047006,35.73163993079625,6.985836231456474,-8.82602327377327,25.67940192358941,-0.9379970816746486,27.914293142814515,7.582678152415522,25.702400096055186,16.49821314891926,5.709122009401263,15.011956270754377,3.549048026734418
-6.077690045739889,-12.928385693810867,10.887217615168668,40.614012404222706,-6.616016469876163,14.065644902634084,21.830735513350238,20.670013763444544,-7.248047081413473,22.04926763960797,-6.48422965607217,24.178163377948398,11.263732194872453,22.803861190456335,9.083502016767635,6.799282307336787,14.329621399072783,1.953366868080657
-14.749340424906151,-3.5165970064836714,8.761120880425644,32.41103868286128,-1.6857945914093326,6.641299830806105,19.657464036146383,19.404762263144576,-7.234073086550541,18.025856948065254,-2.076297226498511,14.190735497111339,17.386526845363683,13.358089403547762,8.022120186932668,5.250995102724208,15.307165942616408,0.15323655019030724
-4.765385230503696,-7.490923404098524,-0.9852063742480689,37.777065142296024,-3.3988103846670894,6.0544615483185105,23.05942657421768,16.666837757304584,-8.88178042420533,21.421706605980084,2.422347139789238,9.573276812112429,11.986003938241325,20.216881505445475,5.208511453246894,4.970518598120661,19.409451277628012,5.277627495921813
-11.087374259980695,-9.226209830983004,9.18768383302871,32.29772948716424,-11.657472747201211,17.285585012314673,28.03268860968021,7.378028864993752,-4.769201214051067,17.099785219904597,3.788979671198259,5.052265552408284,6.5857758611098305,26.778308792773064,7.5764079333164,0.0983371524688712,24.292686994775732,5.607570181556888
-5.980588926316674,-18.00002116539321,-1.6388362028121601,35.30933863792172,-10.348319338235479,8.791129751695028,27.05763115147316,3.550231878333136,-4.271497810022172,8.868663844308786,3.0978200708704655,1.9949062384733875,-2.3298365640063903,24.7413521121357,12.782052758141097,-6.142894863123731,21.558302889366693,8.36970052019879
-16.008014845707415,-14.08556961929774,5.402979670134122,22.59284896236756,-17.928725938536157,19.731758658118753,35.173567405491376,-18.938017680166105,-4.165982975054426,4.150250862594575,2.399668294553262,-4.481692014366239,-5.288032619779369,19.281762187619265,15.747268647329156,-11.702415770380282,21.362699493961898,7.606863306654681
-11.48177990371233,-40.06170172712035,20.059034491481444,24.12926407760397,-14.964863237299818,8.505183151733519,32.65364937192834,-3.640545657045738,-2.0112302379097233,-0.9618421680872302,4.72190449373381,-9.104015149253735,-11.76161267676082,20.262863113383027,19.304151572165665,-5.251978379590647,17.55343487104753,10.8386752271951
-21.113341083858487,-26.396174420155013,14.692153748815214,20.094141531792175,-30.75411230794953,13.881434534252142,23.208881033263406,7.352165252067959,-0.5416721582256456,-5.491115565567407,3.91208398501378,-10.602516484396814,-15.207507181529163,6.688135053155042,22.866772890112895,-0.6590322502239174,9.739873911315872,7.615732488299717
-17.070324232515816,-29.730540932585196,4.341595580037477,20.058019992265173,-37.1711010533581,10.76238193075529,32.03496362341546,-0.6085397847207084,-2.3940823185722637,-10.511880983333771,5.243720363972795,-14.739006654635512,-24.219595720144625,9.026689291737531,17.938923292458337,2.271687851921488,4.758054466891847,5.945947843722163
-26.30634772879069,-20.47456597257109,0.9215706676817179,15.329441998399691,-41.344899578456534,6.9605528969800545,31.78772868105932,1.57935480055054,-2.3926138135773276,-10.946011149830955,-3.0997746699936606,-14.091501401649275,-21.414798381299306,-1.5306089645135454,18.192696765131387,3.735447380695555,-1.1030213193831262,2.1183088486951576
-27.53210655351682,-9.077683701073596,-5.040755145253478,2.2951537999804703,-32.7285250219425,-3.3836084947315257,26.08050595337349,-2.5882973184816933,5.029212539031114,-23.493053460289655,-3.8329802818496894,-17.058570396526477,-13.140865452087404,-22.64007309883489,17.768635551732135,5.3923781172885406,-12.823901663949815,-3.476568278866168
-16.255427141725203,-21.516904941846,6.86505274084191,-12.306376726361119,-19.52527862238335,-19.391273832318582,25.948608114021045,1.146548359177558,1.5117309430987027,-21.980805919042645,-1.9364378673926304,-20.808143225525566,-10.042487099559496,-23.441953946714534,16.666742596155494,4.996302468495678,-17.1231370770707,-2.8307600535845054
-20.50416346995017,-17.65494641476172,12.126868759650595,-20.7601031791728,-30.44658504261839,-15.964494744337827,46.13833673574596,-15.927466709805817,10.004501076069161,-21.35097357631073,-12.05880262889956,-23.387069174865136,-9.482900118883292,-25.518706251077344,18.01206482923559,0.7893317795892822,-22.789927003146683,-5.319417237998554
-25.727394819391375,-6.183390872515734,8.596190158897613,-25.21440983601005,-17.64019868054523,-18.299058492093096,16.238438868364533,-5.372083809521097,11.073624829742625,-25.607592955613484,-9.199684859241442,-24.79535238367988,-4.137769041985051,-34.82754366883613,16.628737586904496,-2.7363269899980107,-32.55869062595319,-5.864341597381799
-29.581417928553968,-16.204284717027946,26.44922651994359,-27.524706729425933,-14.99340044897598,-23.367664766768335,14.765710262574828,-4.980826285307447,7.453512582887539,-29.574871302376497,-3.0271902429812947,-21.71263389236715,-0.15952578225170327,-37.1105248726108,13.590987909080882,-4.897118492815168,-30.608876099866812,-7.102292952074013
-21.71459472413418,-0.3536597817233975,24.181406537478225,-38.92154597508859,-22.799206691599224,-29.803194044340565,23.262805817625143,-0.4956395767763908,7.640382900342704,-26.319174765705284,-2.232844762673146,-15.896757315205917,-6.532675940013073,-29.535661250024372,14.269979758782878,-8.036877063956302,-35.98374437994087,-0.537045372513532
-17.65458809408916,-2.675188632899406,32.26191379464608,-41.53347221682162,-18.5963783629221,-16.51166237193553,-3.681160616499625,4.177193551286628,4.993506187605174,-20.235165513712055,2.3631942866862445,-16.722870109517785,3.501008570539334,-39.15422969113987,10.657763082372112,-9.616549761961966,-37.7456297500481,2.6007668939431277
-16.22958713732787,0.3666163717295774,29.108356822090478,-35.55571118003472,-10.490547172819914,-49.80276218188298,22.704655116731665,4.447788421851278,9.66928576235364,-22.651203369674224,5.878057212799245,-15.206464728796147,0.8395292886256578,-39.30574693816633,16.426402547993376,-11.101050714692335,-39.312553833303326,2.9947571842013296
-18.904539666336415,2.326320678547116,31.420178767366426,-35.44151788030295,-11.860860923306658,-20.690541205522862,4.469493513937827,-2.3205826426911997,3.5033819580452072,-9.934175240319167,1.3780639034035467,-15.54682872163102,0.42452938607540003,-40.43966783083486,16.73189914580651,-7.119251958749549,-38.145415638206295,4.551247502931773
-10.054288658527847,8.868053531657608,17.322015952843284,-36.210256357613616,-3.078149410435554,-17.16470777609058,-19.518915375830005,10.727992326903532,5.539055806346536,-14.701824358210738,5.855682643767949,-16.767389623320582,-4.677680909330831,-41.18885742112343,16.75008707163949,0.08267102324263753,-36.00205427632839,3.5592593232625873
-16.6324514442742,-9.891469221007654,29.880902476371407,-22.92020056007429,-8.84985465349568,-22.42821369964166,-2.775542020774168,8.143789145101088,5.32693257296294,-19.766444447748505,3.685698517524102,-8.809405391500237,-14.369433215710574,-32.86184695239022,18.629407092131615,2.692051847039303,-37.277067391342044,5.4876448473954405
-6.705027669263646,-12.35006194130418,27.982901078704828,-22.427136715376438,-11.206984472697382,-36.77411385420861,26.671783271399548,3.696586639939035,0.5232317630247671,-17.80375891037086,8.149589636215804,-4.36838773588681,-9.31448346311792,-40.65440013932161,24.225323310110323,8.130831876642423,-36.11098948033208,7.992640180015403
-8.202211273045947,-16.28144099283557,19.04997205733552,-6.312569737458569,-22.356786676022576,-10.982987326215662,7.982225527082349,7.347513688641698,-3.7938370069140106,-19.653828700211683,7.821427746118143,3.879988015224667,-16.564013251503393,-39.8591720786238,26.408784337638473,12.004366205855229,-33.57805418599024,11.171928001471866
-5.401185914167116,-7.818210938595925,-9.222787019973847,9.11475076110056,-10.072235638509841,-7.848839516405933,-0.7379265826383659,5.71750112229633,-6.940660512028822,-23.461206407856096,11.197465415963023,5.876968392506621,-10.43402359648504,-47.85930041804024,25.863354649705084,19.488468749443154,-27.432131617732022,10.337964757438893
-0.841132192638129,-20.066345362035246,-5.858062121892695,13.01490878658544,-2.28347203902473,-27.46940495258722,13.402078221153687,0.662089014527055,-6.378126496613274,-26.97981148961614,11.539349532759111,8.067957563710122,-5.573161270938825,-48.83428767614275,21.22178288497483,17.496956306056404,-19.626374385682052,6.174385595013568
-4.776191690966193,-18.74797317653337,-14.801861700441869,8.02475654025286,-11.197738823317923,-15.156424166210526,-3.4072488667798453,-0.9826360980612456,-9.723525658058072,-36.16681137611969,13.632342047551557,1.9567249591575013,-8.719795168261745,-45.3232880117277,15.120781794468515,8.178253431032376,-16.80150635155952,2.39221856300286
-7.440668751895565,-28.570494380323495,-7.245176794149959,8.207101760754938,-5.662240798138541,-29.0163256997267,-5.169189659020951,1.0763453836441066,-15.511976787614781,-31.393043365909705,13.081879015958485,-1.2260970278287893,-11.377685786121088,-47.67807127475264,14.494001527179046,5.790344760333728,-14.465268782237157,0.4563666098733883
-5.807251254571095,-28.830455867091832,-14.145534319399879,8.776808168194709,-5.696837140935459,-25.200855474406545,-4.969962040519832,-7.2236331534843075,-17.10273632581085,-33.264331466797735,16.04043405876635,-5.679799538807111,-13.253842855955872,-42.71488841788815,13.774898395906245,-0.897454931527126,-11.250450470822752,2.905970715270513
-2.219802231731717,-26.656856553824728,-22.514476968054275,26.82407299120294,2.761165684514097,-30.9565922543124,-6.813617210701494,-6.7416051508369375,-15.667677753123948,-27.034395522938112,16.45326486495722,1.6817456489152907,-16.5943764131624,-31.019728235827873,8.275845349793098,-2.4123896322581846,-3.3483966133671075,4.955844205704437
-1.6589431260931096,-18.241024574829073,-21.316701000474087,15.57093101651829,-17.202877791026367,-7.708795914840193,-6.891590164972868,-15.739517062612771,-14.038853916398773,-20.80886433909763,14.12509507585307,-4.923114505016921,-25.11026165628551,-20.893537492587992,7.469584709913018,-9.008566494610193,4.455666487846834,3.1880115951133696
-6.663851284449499,3.44842121253836,-33.30647946190761,-18.83008831058474,-12.658490821379038,-59.170051627402685,32.88254802219855,-18.78739360007235,-4.794252690363109,-21.423813874469758,3.0988431702764316,-32.23277444962978,-23.078582561152473,-17.316896310260102,-0.7535046422079255,-16.58440451315336,7.278854746809248,-6.3037885089799754
-0.1444976753970577,-19.40187368855148,-12.780008192510639,-20.128035453145777,2.3315948312956003,-41.00228247899995,5.86645266155449,-17.545362671147878,-2.87548214558846,-6.906284537477202,-2.562734174067156,-40.109914152255264,-18.311937549717925,-12.379559666755988,-4.772215758846212,-14.88588468209576,16.156495606254154,-10.726341171732182
-1.1442164915032595,-15.013438841148838,-36.10565677867655,-4.241031537935889,1.595088792022029,-4.866493844800622,-14.501350709505928,-26.75968810513399,-17.169368132194357,-9.483360322628728,-6.082298846640738,-23.769316347584216,-17.744004467593196,-10.866785348775135,-9.76247570129469,-6.1591783498733665,13.412540724502914,-17.208607713821863
-2.8270401446612206,8.898799442353905,-33.848787297961685,-2.2241482169687696,8.960464737281733,-15.80279929709325,-13.084009864569332,-4.437485527505251,-39.17965638991245,6.978295041194809,6.895881893582882,-4.695696761886846,-15.515296303953853,-7.016791839260954,-13.868856863513745,12.037115054724929,14.281599935154318,-19.20746313557824
3.9867853764214995,-1.7675080407409283,-14.798610149121176,2.719834617275195,7.044631040736949,-11.896248001074529,-24.84309557441258,14.264515831690098,-45.761429240768905,13.474307295986282,16.937964073386418,5.4896596754466245,-13.090655681269842,-18.115020968701813,-6.837368528710861,22.612848475505363,11.43934478286149,-18.187714462014256
-0.9179650232240517,24.3754892114072,-7.373539926234235,-9.624147455349604,14.500203159045768,-23.713766786993737,-19.21183714175008,30.322951617884847,-34.76618071309309,15.766459790901287,19.55173930323383,5.9078184257727795,-5.977802221340349,-21.01660687101465,3.1286646722084264,25.763295268216815,8.108482367954986,-17.372005411407024
2.3808154496354295,12.229035068820153,15.868237745798378,-25.388608669089166,-2.6577244768926676,-11.99699602301475,-18.84693427237329,31.23769027979538,-14.885411547143608,15.612570622213628,3.4089586963394893,0.9533618239704733,-3.6495115617696294,-32.03040746608827,9.681412787455821,23.734541747800815,-8.211176810615317,-14.02585496556745
9.78143022094296,6.813397300623748,28.266150848582573,-30.510749009198232,0.39573970396138236,-15.418450432324821,-5.486495447617532,18.083027008621723,-13.463248393913483,26.489388773031806,-0.33750838872678113,1.6615973707743983,-6.301073233586765,-21.468481890911608,10.672326384626755,14.671049572397127,-8.124652230997158,-8.832800468234293
7.514067165927528,16.136563645998464,19.3708139032654,-20.009939636427415,9.597870757444284,-21.282671139880954,-10.185789683007137,20.839948865248118,-21.222162890927898,39.217069565137685,-3.3088815142982693,8.325479919067092,-2.9947936310595447,-14.624193860456497,9.128714029314736,7.459632261891177,3.1921960660992514,-11.558546601702758
-6.8627872440578255,22.131908666937267,15.940442135641222,-5.8003422136076574,21.92126910508297,-20.80050658522601,-18.78455394756419,14.117504971177791,-26.34552297018165,33.678103460816914,1.428591620079576,16.648049234412543,-1.640922268042626,-16.673409563319844,11.788876261662958,2.979169113056544,2.301510023645001,-12.144274357316002
-6.590981478134249,-0.39620470474501346,18.658635905341576,5.770371206121201,20.17816352096476,-20.90569907729723,-23.86091079421049,9.244055395138805,-28.63796518202723,18.46635855014519,5.964688027139447,21.648739533540237,-8.782499603955328,-19.803512759043308,13.672182735081856,-0.43056132759991184,-0.8356219557603382,-17.03532042135312
-3.2918551034326806,-12.677590383384347,18.63853883281335,7.084976245779085,13.157742273755503,-27.555411232848677,-21.508662814669954,17.84093402102308,-25.560337863660713,5.593725852469431,5.123602633971965,24.597078969208557,-3.0324517616310063,-31.534149489760924,11.16520947781521,5.335994020725278,-1.4339724224881563,-21.934667733157266
-5.657014688103931,-20.181015238209447,10.020686324828025,18.163387160207566,13.653161543744204,-5.104606085376586,-33.700915014512795,8.560069609484287,-31.46827596013278,1.603264967191052,4.1789097304387095,28.032144821438724,-5.28950572371106,-25.69304260605975,10.029673669774795,4.360584713225054,4.608081108825363,-22.64295470046915
-10.073190730668648,-11.48045380094759,-3.3862680447442317,19.767104715898412,27.32856299904857,-18.10508577799125,-26.745861685161287,4.058121701881879,-30.54117029692346,0.733162271669368,-3.021770843738639,27.65697100874382,-12.721557036408173,-4.233341355180791,3.429442199297487,0.061193429960860746,7.4271034428583675,-21.015597411531246
-8.239541374730633,-18.509913967739976,-11.13294242487844,26.935494392518855,29.574189338517556,-0.24727841022078678,-30.819860227294754,-4.454042052599238,-26.978246036975946,-0.14163482766025304,-10.521258346530722,26.694235836549513,-24.156682284555075,15.46188475181539,-0.7253010076565687,3.473107188692212,3.3120961149884867,-14.904042468722091
0.8204455686651118,-26.034711929680142,-13.902935336678434,21.21131460685144,31.425358845481178,0.12820323437097159,-27.07508344982891,-8.968422317911129,-16.482502592123666,-10.200956756881872,-16.56165375755833,25.339226015934287,-15.668704097739528,15.032991391699468,-2.044019647113128,-1.810211334839601,2.7124320261496315,-6.261359492483759
1.2861518408153563,-11.691145672606144,-42.94671590529533,34.52871537675817,35.323509070056254,-4.283163822703887,-23.617241303736414,-10.949820217389163,-8.038389712097974,-17.33524452492196,-22.021815957460298,28.57245583436437,-25.246451894420307,33.15245698154789,-10.780872628569071,-0.6518487324344868,5.725762612405822,-6.8063901257977495
-0.49473293712518984,-18.74151142735782,-39.37665699497916,32.3169232648105,22.323032842321098,3.3157247222839956,-16.735457958880655,-15.085742014354622,-11.313959049847464,-16.661609834153587,-26.120421185533456,27.80001197509459,-19.002657939227454,29.48765057706492,-14.533424594689421,-2.1340104518786194,8.15279767896793,-7.9451641509613715
-0.4206462872834349,-6.7554190483120955,-56.90450368878239,31.275475881428154,21.62358922915808,-4.321665455639044,-9.066611387480386,-19.911256109941,-10.78156307189596,-15.016091118806909,-32.17776973516737,25.170330783131924,-20.17983211826596,29.331944934027824,-13.985378720146656,-6.842677819615326,15.462362186494293,-9.18930195178219
6.58655256100414,-24.463992113741085,-70.82283353570642,56.60013160629421,18.576512307801668,-12.644353750873446,2.1235955301550558,-16.930073435525234,-16.109249020054847,-0.8750695770968466,-42.537583498589086,27.42176061380287,-20.184060729014405,34.4431996828774,-14.215037749204846,-8.918420553195006,24.7247142732891,-6.046454819926508
14.862653866203448,-34.46422443458802,-56.22890637045086,49.6963050668074,11.033327215917515,19.852178848464504,-13.536514534963484,-18.642318929482773,-14.69909725654905,8.964331044514498,-43.33239854312484,22.932992883342415,-18.23404903760426,51.852794597508876,-15.417818595121414,-19.49425436493927,37.79534012428079,0.11626320582396943
9.172990268572537,-27.087905118201476,-61.072653917628735,60.07652642930573,18.720893199586623,11.233069923105013,-7.901796309920858,-18.016569440165355,-13.191760878351126,10.302837569513926,-35.83169974093243,19.809580712028563,-6.614802583110629,48.845411326328545,-13.199225476174941,-24.995785894526115,47.447554825342145,7.248135480220615
6.900580543867163,-23.13603535889325,-50.68555748407321,52.29108907312479,23.279551166685792,10.131857700443131,-15.250237598513838,-14.17383944692072,-19.204468369537047,14.273444114729397,-26.676146808487786,16.97724783753166,-6.810991098169852,51.78866635625653,-9.610174470083628,-31.380168966393835,57.294681311428775,10.173399160484632
14.100146556577315,-24.56166974024319,-58.27122551932325,52.3170019986996,15.236496696030418,8.931224147002736,-11.655813412894215,-10.43442632566661,-13.986856423935512,13.063545302163826,-29.14712499013489,13.654689407827668,1.0995975389394683,45.740954103193346,-9.53365705061955,-35.229413487122535,61.47724038551931,10.747650093255615
6.161880730341448,-30.192812475816766,-44.47356331510022,48.33772579827837,13.537328071349503,-5.162006958648629,3.9555897773551485,-8.653761492759683,-7.8905664088474445,3.938740335833236,-28.400589638110258,12.185646449037785,2.27301992132581,42.811864972970234,-7.891576053916584,-33.51615944316104,61.5577397406056,7.2131490530758064
5.6446649586602256,-32.31439658841403,-41.12896652088404,50.90034054496041,5.877167066566064,-0.018449352389895424,-0.1549153850020586,10.602110768262111,-10.095344990106978,-1.5773394200723407,-16.916825959231947,11.691152763944174,17.119776717296986,27.473850857878354,-6.930165609917552,-21.357548867895666,55.680664794056284,12.75379228418316
-7.471392560706045,-1.1407033178509671,-38.76460454640735,32.27008914125524,4.463228578691375,8.443677086729718,-5.237164744074343,14.227281684723508,-10.249389056989921,-13.25044784463415,-8.660821417391071,17.054047035516163,20.444203759704067,17.012366266683497,-2.4502497116892297,-13.109297708698303,44.92023179910771,13.306967678016782
-12.87353592443262,-15.28610304195219,-40.9937818717714,52.31120434356836,3.6313614238203,-8.291694009141558,14.002074368274366,13.354798394841133,-10.696400041508758,-24.63515183895533,-3.1442174499686395,21.63355283605478,20.64489922428809,8.888346382129955,1.0558081324938726,-7.89251356118403,41.385980291463554,8.872778771678638
-14.565785471820519,-27.288821303438866,-23.20671403084576,43.63988045229739,-4.138082262060763,4.854398524309868,2.5813722105118786,7.691751992045109,-1.7681757389513066,-38.27052827496178,-5.152173067226753,23.769436727541716,17.819553038661738,3.4924605118937198,-1.0996716405494205,-9.222901445262407,33.261302146338224,0.7208807118311515
-8.739541256414658,-30.70333229168022,-26.224300475101785,41.998882304678446,0.8817595573809043,-1.7281796197895485,-11.5692795345953,14.132995311326884,2.1796835032074853,-45.07438082214113,-2.575057934546379,21.801463535171145,29.155959250811435,-13.33562339358789,-4.9128302287507655,-9.190209914208387,19.178966144351886,-2.164108971840834
-0.2777411088250137,-29.82645950781393,-8.8349370421486,25.02461632043669,8.827454077564951,-13.293110054760003,-15.070892356081373,20.373716291528037,2.807448163036767,-38.89424322966966,3.415305829500003,18.75696789899103,24.57556521439976,-11.224305952364624,-6.086836049612307,-6.427255254225831,20.13536231413671,0.12025825535132562
-2.3642296577761543,-23.29087553463053,-10.88294207201765,20.06127563921946,1.8276342434878474,-16.754254050194604,-4.603224806045699,7.175402657949732,-0.2754224614840517,-43.07028465302757,6.959524689415186,19.9094108001002,26.832655172750098,-22.40059727841369,-6.672611003026077,-10.113888846163736,12.204319029272558,-3.6565506832517833
-4.744992768295753,-20.862233459560112,-6.586630807646042,15.29229662640676,-2.636964608403466,-18.068730293731832,-10.244982331782245,8.425352041602013,6.700904530604731,-43.44209993620575,-2.1963931829827033,22.03602817969686,27.43103594624473,-30.164977739804886,-10.088285658426855,-9.703097740375284,-4.516532395788577,-4.11928500393145
3.712904501877359,-36.40780970974693,9.913504151216436,9.155175421851432,-3.68742248325914,-22.119420441737333,-22.230512112623536,21.193893248101745,6.74407509976588,-40.69325835266878,-2.665331893210938,22.988289511520065,14.163519604033604,-30.904062946836664,-4.908014327230939,-5.1949041195270995,-23.386493129051367,8.595595395102261
1.8176862701841854,-19.829059306064444,5.413875686593752,11.611018604837387,-8.452753574441182,-22.363248687172153,-15.754868998546645,21.359624619464377,2.979230799361966,-30.624440132997826,-3.1387596873662993,29.79749027676054,7.928891454408838,-31.1608715524854,0.17655403047517648,-2.1558205731331412,-30.92882353747789,19.155934203233798
-2.3251001282948724,12.077012214451756,-13.151770680005587,11.917488994887414,-10.682861152249748,-25.147959080804764,-20.70144191547068,27.18460280710063,-2.3474054322389293,-27.688951882981954,5.953852321209585,32.60013539525705,-4.847246168534422,-24.880571810459024,-1.7683903413659845,2.1485489788998464,-38.66716641034227,21.995349593629935
6.323793382230956,5.696432620121648,-8.673446376589247,15.543431473680052,-11.451978453505214,-32.133722337451246,-8.261317513647809,19.82094224520433,-3.9622197432499338,-27.003865722481898,12.405356599462763,37.45093996591905,-7.563049966933942,-27.98132160111749,-1.563130133818234,5.0814256424385995,-42.98821570428066,26.684409859179517
5.107728389911957,11.909012821344149,-4.198329504120711,17.508309979204522,0.17756388420047559,-23.1053736078867,-20.818074505689445,26.222236479691105,-10.166023268762595,-18.51039166569483,17.77834650988248,41.22479011112097,-10.863186913290818,-17.708811828324876,0.9875398713264687,10.060811120577423,-38.03253819010031,32.53962090813125
12.191003082467791,15.968563404091018,2.2267844686004246,15.46834473928806,6.041429240494706,-18.37570846948778,-13.449271378157178,26.17338951211426,-11.77889084358028,-9.23984243918339,25.393254179404238,41.4801747980123,-19.923491336649715,2.3236786191674597,-0.07361267476771349,18.063264297190607,-21.06574911667105,34.287575128686434
22.59303247276166,7.2305209458658055,-1.312297967578921,23.779226909749504,14.73350238676274,-23.413544315073356,-4.807654866435319,20.846349338459127,-19.152444592969566,-2.7078503841247645,30.757891874400364,43.392885463696985,-13.356893086870372,2.13528283402996,-1.2310192062716947,19.811282002805758,-13.084295344534775,32.319014045971656
9.457899038877668,21.926038055674482,-1.9247033653413617,27.987611731503513,15.609093895706007,-3.9409966703211765,-28.19463210871072,26.55001254687045,-22.813784736835494,5.48023077455861,30.74727948632993,44.03311993686552,-14.015279172107798,10.535095254689981,-5.609837306207581,19.113498887154204,2.415947749803035,25.559813240909232
9.8955063270547,3.9997035379922963,11.913234223379128,39.03116437367454,18.04335169340515,-25.2910744292931,-10.367015100284366,28.83108642434645,-22.0792075334809,6.92588494115121,38.25230547042288,41.74062558421092,-10.765643947495356,14.632357024663591,-11.940626011574002,19.29026152256786,10.395654019361828,18.111708635541408
10.136076572281752,-6.703992495059975,22.42785946930414,45.19095185655035,22.42691225685178,-18.32207680288015,-0.44676354881624114,20.95123854879953,-22.319788642625035,8.855835951264403,47.31591354029526,37.19893455434419,-3.9985960628942805,23.411644785895213,-11.824929030919904,17.021190761865494,26.968315737020667,9.97481114215986
3.2458751470552034,-22.196819586979,41.82644393276306,44.22083963512043,22.900317360017045,-11.354726213507393,-16.598332829201688,27.129638924963718,-26.4651598247258,4.7270677122888785,57.44987989409673,31.38455134650148,0.1334481595356678,22.224363739116008,-9.85276915574337,9.571854499358563,33.87189998366807,6.618065164606795
-0.814042175379394,-9.958617552232772,35.14757125948547,38.464604677980944,28.545743710235964,-11.322698614748603,-22.200185365308712,23.44019046033761,-25.140077283240924,5.67261645159196,59.767414055078895,22.53956298662487,13.447095531363136,12.34013236843559,-7.782094302754668,0.45791659347090263,41.06746010124262,-2.89608522117169
-8.684434058124406,6.377573307073696,10.496888979392924,42.37558155282143,21.198859239132368,-12.07353147529664,-21.061087243515615,10.0782566617853,-24.692193185911403,-3.3467546809333033,54.952183007716854,23.652374640490894,7.035674125865675,7.919392469383954,-7.9567983657248575,-8.855771047417196,36.05476858978105,-7.629862158538611
-11.185503843280411,-1.8994898417734056,13.38295949534081,36.226893704596144,12.773916600117474,-10.091520016595961,-35.54477440291615,17.513099263208197,-14.867343785559612,-9.342509909779174,46.51992709028828,14.21478612013174,15.079410997488399,-6.6630233155959715,-9.98635799989255,-13.779308238180743,25.669829922813168,-14.712169751736408
-18.278370490792163,-0.1211766620063166,17.43824879045066,26.366279234147353,6.981919074965271,-10.357181699129201,-27.662498588747077,9.513742271012207,-18.029050562071774,-13.974773348055816,50.87720720340822,6.531597578715505,22.53903097556622,-13.53567590826109,-12.11304093500957,-18.41433307418541,12.35404973713034,-16.427935664211223
-19.025395092199467,-2.350069464691856,22.272181974529673,18.65318570177351,-1.4506413020406708,-3.59300285046114,-29.250794948515313,10.592322852314116,-15.71989975475598,-10.016813698189333,45.9534334829645,-0.6668169104124004,17.793278555029836,-11.331282765703321,-13.262718471348922,-16.901393566668325,5.580190479485189,-13.070022337859877
-24.657244245181133,3.132892379181122,16.751832922868864,9.474258163144341,-8.617444030100877,-7.865636046999802,-14.821104368325344,4.049410639978378,-9.502314589794075,-9.480473487706428,28.916589719220678,-5.232062421513859,21.44795119649085,-28.761143780435884,-6.990085546387528,-12.951495675099517,-4.515218375154809,-14.990039565294362
-15.15410617444375,-1.4458686179964602,18.35799348697104,-4.97917538302643,-15.788027892774089,-15.264774082697421,10.059971698348502,-4.939092125234888,1.2097516067525191,-4.45541535155264,12.95052793945572,-12.926020882960046,16.119984129435778,-15.531445568360773,-11.94787561581438,-14.572585347599684,-8.654730649949855,-11.640840898232602
-21.180534689208347,18.289302557534576,10.195931043752196,-18.35938340194695,-21.985802658133714,13.077394691818764,-22.675121102004567,1.9865105471362057,5.088100701589031,0.8591391221850948,4.500714971483962,-21.502639284937594,14.895526156781392,-20.568637248692987,-6.944463421261466,-16.979444007988135,-15.920555619360307,-5.756732731595704
-24.865185187486297,30.1114812744444,9.55112201565475,-27.150710121356482,-20.960659086980712,-1.1606055090982785,3.0885615567266775,-7.498453638556219,5.550852683046823,4.119466150281134,3.2742324658286996,-25.29784331771357,15.919090461599813,-17.40739110631859,-6.628613560205488,-18.414242472958875,-19.086060200220757,4.517892103625038
-21.813479634029076,1.9890573752593053,29.509759942160855,-22.759298441376785,-15.446998948769586,-7.29437510469033,15.18184177776884,0.29797421693356796,11.19198699805159,5.130312892036503,-2.643110085275616,-26.753150562613925,10.596804753844388,-4.680417229552959,-5.824568571106858,-7.353377011913444,-22.057593873075664,18.011250569231027
-16.420035028010794,21.032862532343977,11.08662603256031,-25.88861432768671,-23.120857129694528,15.086586596878234,5.010731245717576,6.625545434027466,11.659880609116883,6.723817027718482,-1.6299888701208314,-26.94286955732617,13.967968432021246,-5.9231480685757445,-3.946483934159248,-0.49633028232567433,-28.350875291243234,26.520202033166374
-11.321627467051968,34.50784327013499,-20.52252665932705,-11.147671293222778,-25.134272543391315,22.231645481747144,17.10705301796579,-4.629230793008135,11.642201435442146,5.189048142762751,3.7745465773129716,-29.089778304806018,14.801947353855462,-7.07278478832094,-0.8968029529530792,2.7428355507670314,-30.15332533483997,31.216748573186216
-23.21774605313835,33.91790100131773,-5.746420750511283,-14.27922894448595,-26.467771505055094,25.95742195298422,16.80220362426868,-5.047916862252366,10.06480957814031,4.823010927304752,2.6328800741133342,-26.846195326200764,10.950275751136186,-7.933926365575022,-0.4842776279741736,8.71186545239657,-30.49237407689428,34.44478476895431
-23.690002375856846,36.35326353954353,-9.13676681744008,-12.919692150302414,-20.578265774255936,6.43942890134328,27.143304731557045,-0.3922853018289558,11.810686014049551,2.5983798944042213,1.8787609144407114,-25.681024626778253,15.98738254665027,-20.323072571925643,0.7090137498060445,16.238858832325977,-32.59076706859917,32.49342490075429
-16.156429753075756,28.43494214512482,-15.751875250457758,-9.315216821416364,-16.840877512165598,8.014314699868088,18.832930000811196,-0.03744609248776065,12.192351793245098,-0.5082028427052183,-0.14794367914455897,-24.324784951052067,17.12010534477274,-26.271111241773045,5.515047418005089,13.604879575065446,-36.15557118080887,32.58944970905698
-7.160107645529501,20.221803974122004,-24.12682491196222,-4.637724138976257,-18.18531677305284,3.337946592831159,25.758211668738596,-1.1512927516238136,7.4989038560682015,-6.449827198481147,8.174085264830863,-24.92601464459956,15.422679362165805,-20.309119802588704,3.1913747345249934,11.45461444283837,-30.44447502775401,29.850079704150286
-14.084123147316719,16.88982733744419,-10.433072554048954,-8.555358975681564,-10.646503297348257,0.027662852210683653,32.293808429630346,-7.249472946581982,-1.292990957189323,-7.511466714795934,17.665067188257,-25.043336855714667,5.230954255186333,-9.175392108386912,6.921694421400305,11.448238469761424,-20.633378785159103,27.498127364374895
-9.584316869940245,10.724166914870423,-15.491499334072603,3.2486271750497053,-5.943341204112704,3.6499891915790013,18.615096867014366,8.719237290589207,0.8560470334983012,-19.41595254598114,24.61405413177588,-17.15717073323007,0.5099839572469964,-7.2255247113638355,12.604286257476211,19.152236641763785,-13.070075416798183,24.55712187500281
-14.852424800816049,13.932154351946286,-1.5085060863045427,-0.28095591902387795,-2.7085961511326566,-3.7640641370078285,22.32020549394968,19.703672875275778,-0.507241866222774,-20.092570470984857,31.950823649548166,-14.06074376638766,0.6738176326634262,-7.9163568033397596,13.891303092242396,28.90245415957507,-9.707759480166839,23.37095512178999
-12.798347348311115,10.30271680525845,3.9764776549171152,-2.542321274429579,-4.164946297724136,-2.5852570881873334,17.725047959552768,30.098460044860897,-12.511788804343583,-11.885041443336958,35.8667684469985,-12.531412361736844,-13.027836704487648,3.3032080211263057,17.130405121269224,33.667528180653306,1.8560623694090443,21.791262488728353
-11.039391762427531,17.12138410757227,-14.27110299508271,4.667752575965519,-3.476321283193199,20.174923821875282,4.731866598553239,22.1299170373196,-10.45010371937639,-19.207735912514593,33.236884673377816,-7.1004031153180325,-20.379834204765878,11.491629484861313,20.368345792977493,32.08024510154378,0.9179096698623139,20.697068863123945
-7.915378600330312,10.657432961818785,-12.109897586371911,10.704543495704643,-2.4005305937095525,4.359344409231509,14.88401234738447,34.76350814199769,-14.244285981712444,-13.2515562651738,30.311310842588547,-1.4787683247449679,-20.50326404281689,21.434231590817063,19.01512077642458,31.66024598054395,8.08352613504823,19.01424390802866
-9.481088546999128,6.92683795867913,-1.9423879423639896,11.173425068381428,8.437599944610433,0.06645873205730979,7.5557670074807515,39.19022504635309,-14.030826522189306,-8.176810953763075,28.06666686789684,0.8177571458838575,-13.691109750435917,27.66227633295967,11.508116932727955,29.770767215317267,12.219890027279831,16.54757655057159
-13.392735331200806,8.078172165837948,6.172729079288132,9.883021509376348,10.9714208092838,10.42134739767014,-10.709898271503878,40.00000564980519,-12.348751688875726,-1.8349663273297843,19.959926101324882,4.964979338307787,-9.513841650392457,28.418020472174703,7.515362533932573,24.263334229610614,11.764438233083718,12.027620207935184
-4.318051980041828,-17.138940971975643,25.516955650553594,16.403764273093454,8.228355629149899,5.540774334463919,-9.053234148816372,39.731974430481614,-5.486995000106797,-2.0385788266309106,15.268615295942315,12.720685502545072,-1.3307466860996993,22.82264101246143,1.0796487755181041,21.876327143472242,11.404703097008936,2.6224041194043455
-5.011288954784753,17.605038551025288,9.116967348007744,10.520474755402462,7.044481179592937,24.683182910596315,-13.353637371827475,24.323439209643873,0.8903643110541495,9.376753287432031,6.570787214365112,15.393286886914034,-2.130319061456672,36.36490532267944,-10.338210843222361,18.801090510081153,13.582089030234002,-9.617155768484448
-0.14017688765975223,26.566709979934387,8.926729514564503,1.2176394530380108,11.81443201518279,26.832353456736406,-19.509577497526273,16.235701840460937,8.736547956608119,18.836665411484756,-2.7154965729035503,11.713185264796802,4.396267557898729,34.37641332489733,-18.437392213984403,15.037621146121108,15.073851608907875,-17.17131032311645
4.142851886864589,23.61356479649836,20.747005857067595,-12.774316934555227,0.07696543838120196,20.28922436833947,-12.38419844634613,15.273467744416177,21.957929540153966,19.505176114613004,-13.859746287389356,8.125746238600993,7.506643972726522,27.404299061912994,-24.194555033642605,12.539071103875774,14.31742809047943,-23.94626623155422
-3.685809592381066,30.718684142519443,32.17530879560824,-9.18945329766537,14.80152593599625,15.307888080341034,-24.790593515830437,14.893688580898676,28.9332989470955,29.0583957457929,-13.287495831445497,5.314531186735866,8.07971053338025,27.362905339349446,-26.144913935161505,10.914807143922406,17.367559571003824,-26.523899857291653
-0.09063854341802724,40.85079750497438,37.938164609938525,-18.78998026557921,9.014780625208697,17.943153385111046,-21.279094588644583,19.295666842366522,29.565056240474608,47.887013560097145,-16.330970287536566,-1.212756207027856,18.517979388621544,16.47862233274001,-26.632333807664928,16.610238350433292,22.17339483478819,-25.78302828362287
7.604042917508298,37.89646164804431,45.55526231686948,-21.556082320848127,13.576616820848356,7.784580631962092,-5.072497561750359,14.026076147131086,33.7166877002716,62.80729175477744,-20.744001531204802,-6.280293362184514,26.711868364910302,10.572103174983175,-25.46157664337201,18.492381141761136,25.609847659891333,-21.821206797933414
10.609047510206143,57.98912137100239,31.686443784008862,-25.202740755512274,6.904716700924649,20.18429887910305,1.6608011805537988,4.2607954518763975,33.184994290677196,69.620003359529,-15.198251545178259,-12.524874195243026,25.14170752091453,15.698227317383841,-20.191274719370988,12.361952093625172,28.751114805159492,-18.544642654994803
13.123668284115944,35.60051100825412,42.91449151669595,-22.69861659899272,-6.020330908037215,25.942670001021078,-0.39568243829809013,7.285263142335591,38.7123750663712,62.95402719032485,-14.928287495597068,-17.798060550951856,23.084956661809453,9.493472149928865,-11.407448531951127,5.640939517332101,27.300217500901127,-17.808730650631414
14.366654387099327,28.9347186378914,40.56697954942271,-18.14535164767022,1.0714515164294678,13.438448107164948,19.031863896234345,-10.201792051846738,34.47832016856192,59.21591672279139,-10.558925828491144,-17.41231013605103,19.076722621854373,5.337048262552022,0.01090995545968454,-1.0847093717828695,27.995501821917713,-13.851561920604595
11.798916446469775,44.53488476979511,19.565743175372056,-15.93755920708686,-6.390729248022607,22.320699855630494,31.23197859745673,-30.914932187740135,28.10017368431694,55.96428014887658,-6.387066336935883,-17.715402311645477,19.757703118062302,5.572841911318418,3.6143520233861146,-12.697880035337924,30.250983576968668,-13.606733880541697
8.740830258875011,30.93544922292113,34.69681103253848,-23.497240718134538,-7.019779946309714,-3.173121265457235,49.77900271670388,-20.86924585194645,24.460859205149415,44.2146556024323,-0.26419762812441405,-17.535467383200945,16.338671388520932,10.103296145489143,5.750562055746364,-13.47567393665831,33.38302112072546,-20.2968498774156
15.055840933055826,28.957413193447923,30.4906217782022,-27.445297069860004,-15.17133882070151,14.399594700882856,27.21119089570746,-8.19014436952305,25.51356426970662,39.885303464837804,-1.370105766522686,-16.970183133125182,13.214194069349041,2.8149849247769803,10.032809533283118,-7.812686120932508,35.34076477998945,-17.124676584649073
10.431152562058244,13.600457972093892,36.928135330494236,-14.50028490025311,-18.052190947009166,20.155218719711442,27.005991776713273,-14.459970406989548,19.051100177198837,37.800410752109514,3.772019355205252,-14.164069320075255,-5.241000432266258,13.78659358588007,14.99616329192952,-8.892707303003215,36.12417781329327,-11.60975802694804
8.050574760749223,15.626831426047644,34.47783600658151,-13.861875732206503,-16.44354586011007,28.937747090781997,15.76437701997499,-13.897062518869244,16.011158655547977,28.584880161669695,7.1542855336052895,-7.45695788961137,-2.3076364717672835,15.185767854139085,10.386497420627745,-8.903113071104494,38.85827161435272,-14.006055014999045
-2.535255345977104,3.395482445609751,54.976178103379645,-10.5884403905773,-17.376707034000432,8.910775185325765,25.713320934701397,-8.161584021984021,13.952316989601279,22.19984545749722,11.120521599975655,-2.0247192346046674,2.1897286032602974,0.3718833575514422,13.196197397743102,-6.672004294391501,31.43345063548282,-13.082825599880977
-4.626848279507355,-2.0971211535125285,60.434330410469784,-3.2151156082121366,-38.039381481322025,16.715809784376383,24.72334839991862,3.9183765168487596,27.327937408730136,14.15309340146245,10.885541996578738,-1.8713274375041151,2.684566079727402,-2.5295284902977,12.389879200161385,-5.226763569645547,22.54121857613734,-10.402491873807028
-9.45482767317144,23.172875400651208,34.152847794055184,5.523681360221792,-38.09886583529117,-0.6752856727274317,25.1969151700712,15.995084893143579,36.41116894283785,6.983766609565837,7.523626277648164,2.476015051729399,4.938643700929092,-10.706127398701028,11.67847951447214,-3.4931472613771373,12.474514166152499,-11.824416592943939
-12.038631756794082,6.548161177758036,51.03524414169749,2.541815180598496,-51.73531102094901,17.773591563474866,-1.2844569505676628,24.357566305253926,38.3699454681413,5.08650335504754,4.355182788716389,0.27495713137441413,10.416787270624258,-25.720334347126542,5.886082656399493,-1.471145682555207,1.0379882081715106,-13.24687313476764
-15.015001978918697,22.541636696869666,43.69770478524015,-8.938004432440533,-43.401240080635944,-0.39958770314652714,8.170742360461348,17.384569486328648,35.450399109278244,10.512154776203666,-0.18226629710907005,-3.4939525176071915,17.556431301894598,-30.67725711611098,-0.788081987693972,-4.3366081349493815,4.735765938008303,-20.333909026396235
-9.106435009242388,25.44952145373879,28.05846628733547,-14.364767392403412,-35.94850325536653,-14.862163985883559,-11.9659033045116,30.037585771542233,46.59813128182167,6.95191552965602,-13.217689092206168,-10.295572379832478,18.447255880946166,-37.39337877212427,-6.683884220208376,-7.1089776626975,-2.702116621065496,-26.640012176613798
-3.004451253689573,20.83834563546954,13.395037848850304,-9.8321547024575,-38.75218127124624,11.398157859207654,-31.518223398628656,20.81209659699107,55.89492587301275,5.8317771737073905,-23.715713072201652,-16.614212446339465,25.49174975593228,-42.93886330841763,-13.852185875358005,-6.760850785694762,-9.459103723061688,-32.75102796968322
-6.572463585515852,15.153556243822269,23.3406155223137,-17.11783036845464,-30.815796333334518,7.091237983957525,-26.267167839331496,7.774805591749457,52.500764941544375,10.472137576878119,-26.012140381791333,-22.15688432446356,31.853825615052315,-40.868195770207706,-20.242221569616344,-12.960328872046786,-10.652338002662276,-34.955861440338076
-5.552422686307576,-4.788608294521623,30.35573866892345,-15.811311936344907,-26.006682584864333,4.541797649394962,-41.91662673622549,12.410438081420846,56.82610306781261,7.005631126168778,-33.48603138919648,-26.142307053037364,31.771630074228295,-51.88471267540464,-17.35781290145367,-13.500178087501109,-20.44222015246251,-35.9888287258485
-1.9951215019145145,7.496966908132965,8.072838768426696,-20.365927398505033,-22.566934509662644,8.437416479671686,-38.71996577201305,4.44511799714677,66.72245254159321,-3.1028437638668116,-36.176245405346165,-34.2346065962456,26.612323609965834,-43.17530868591154,-17.015589215192318,-14.825791513574044,-27.10984836086338,-30.869284789378483
4.099459864059039,-4.142890864345187,-1.7105507454547002,-21.89480201105597,-16.00422869151598,-4.073809796096608,-28.98212426652687,0.9689742070129039,67.83410383298714,-13.114871841146641,-38.28201284249751,-40.08600290614871,30.731545018137332,-45.69738254995313,-14.820992758409474,-18.304358256753954,-36.02642387791353,-26.14019827808128
0.03583534886595885,7.753505288574246,-11.592258255135363,-35.632519945241526,-9.345886595576394,-12.093119039598747,-19.539206191008823,-10.322843140637733,67.09473048919294,-19.319428882921322,-39.607964540078655,-47.602774629141706,31.14076479357525,-45.09514141248752,-17.024157193211447,-20.32252115454861,-45.43413137004665,-23.559308977862326
-3.248307778520183,-1.3457515662247452,-16.396403890151934,-26.12929528948878,1.8027596014106564,11.235371866378449,-43.497245676778846,-17.90669414812617,66.06682611955969,-25.427479957854096,-37.614944267535265,-50.144160418570934,32.23453017711974,-40.9778491350025,-21.964936946649008,-17.657552452432803,-47.9110049374305,-22.93120234204125
-0.18645777945826225,-14.448194649031148,-10.654134905582353,-37.52639734847973,10.60573856982208,-16.120835382081253,-21.167585027919817,-18.95047654166138,62.113597334617964,-30.36476186698603,-39.33425298938206,-55.22976716081902,37.23549459929502,-39.20486488988431,-27.59255318192696,-16.07123490917092,-48.04697900214718,-22.79091374293965
5.02212320729822,8.3882092261562,-45.73340355866874,-42.08899564790167,14.231047212399721,4.570236744513205,-33.801520307452705,-28.49345315330087,62.75465161835353,-36.86566423836157,-42.617362735057235,-57.683691418070886,40.186483065891736,-34.99085419124046,-33.22343310555965,-15.465885272777353,-52.385141006134035,-23.431318492229188
9.05709279990435,-22.486330397353726,-35.597721871349634,-34.44587913559485,3.3036146529226755,13.05376366806362,-16.261393103838113,-43.99649216288148,57.73588373459212,-41.60979774086897,-45.21808641690361,-54.38083818123599,28.39193574575551,-21.694985591238254,-34.65832295003264,-15.939134150061436,-56.62856739539995,-20.457721072944402
11.527840875825557,-38.51606738289547,-33.17756612694168,-32.37071807749656,11.222460931404527,6.302355372136025,-7.024405276205003,-54.71721006865081,52.91671165510282,-35.710282759487335,-55.632586979508446,-54.11035262764007,26.36389112526096,-17.872124790568208,-32.971484581840826,-19.737080794009326,-54.33186244561156,-21.09669782884624
10.8718644464962,-7.083306351791165,-60.05527797844677,-37.230679284249874,23.5343140823096,-4.355691516714854,22.034822112668955,-70.03071625177544,43.80482909513159,-17.9952020363076,-61.65358507842098,-57.6534411484216,28.63346089228142,-13.756393141270086,-29.139519796136703,-14.554819528227268,-45.885670319454825,-18.70742687921932
12.460360051052763,0.9124411817405367,-52.460334070398915,-52.34608124812478,22.758512787677503,23.072448877672727,6.364474631561325,-72.45623990319315,34.30649174561475,1.4767206946942872,-68.35922000815464,-58.85760651791381,22.602741235072884,-2.9022755560692097,-22.28353100359109,-17.677738281534005,-38.80964826318966,-12.606209462750785
20.29731580897529,-6.520884572879545,-51.994912458082275,-56.32983108406821,29.50091490800866,-1.4536633854556378,18.32889154818024,-66.09536907807318,25.202904073456402,13.720995969100203,-70.57356700894495,-62.898645339697325,17.256188555686684,1.3112212998657018,-21.681023283661467,-16.605612579069714,-30.662362069599514,-11.191517721968204
18.46454076080307,-12.390833587880365,-39.127445609389056,-65.68603596678378,24.327705307759516,4.391441955334553,27.165840570269147,-78.78052093837988,14.247877207751742,25.866660573791815,-67.61295606695018,-71.24135611787632,9.273383759945725,12.067995464087634,-18.05452880610996,-26.18238352277812,-19.393006529900433,-8.310821693393514
23.563871292974294,6.05684859067471,-43.350551231137835,-72.99265364165689,19.836808019480465,12.775303149828819,25.64860681106707,-70.08135051663658,15.11343068032079,38.69499731503713,-65.04381129033462,-75.4871016942037,5.978601312979563,26.926705825156112,-15.017399183399997,-29.708540490833293,2.1274280085718296,-3.182768402704335
18.60288103787423,8.977802776929972,-23.843273779639528,-87.72242783418625,27.649570023994606,17.350160152778955,11.531022172252591,-67.14666723919568,10.221104097867887,43.31917185658445,-61.69417153917346,-75.83112221433697,1.3170052915862698,30.848161956086322,-10.714150356879232,-32.066931780799734,11.24234240120457,-0.3971819739273492
14.128626179045554,15.6106003888562,-23.28202514905471,-78.62482161383092,24.621183114854414,17.139427512180607,10.301718810211668,-55.03479275607457,4.649029861976359,43.35253973945616,-54.24360429498408,-65.92558550147064,-9.301373985759941,40.62959576960991,-8.367498567983064,-25.93318653453121,16.25264305743781,0.4366567144535196
17.563115030191344,17.75198571631585,-28.48298947091185,-73.8252010981582,20.126866811790357,12.240753816781886,8.581550379625213,-47.61308030269808,-2.7747577456408905,36.939622212163364,-42.78969694565565,-58.368257343469736,-19.431181295274172,46.017044111571806,-7.684479265441119,-25.565292845193234,18.62319649135079,3.8110902565061835
17.089780898936866,8.370593814680532,-10.539454295488065,-65.02259245548329,10.358045938717494,16.423870190724944,-0.4655587802504577,-27.596062289484305,-8.046366798537932,33.74855303924576,-27.723009210948543,-48.080849067155015,-18.525435927985924,39.39330166717,-5.051762627530344,-17.095808051781923,19.721213377224206,8.2613373725368
5.970259371813845,15.494186368689636,-0.7018746695247522,-62.568647438964035,8.107961333938992,-12.597036145610506,13.531916782119424,-20.667675114064874,-14.876869254665628,27.919884515931546,-14.219329310066978,-40.62976231922769,-24.35790128797848,28.961715791943647,-2.9107966593783843,-13.317850988039446,15.445072830959596,11.639010764896963
3.540802437919925,27.306165044680196,-1.9976183047238263,-59.138964166659704,0.29055286156533155,4.476107459673398,-5.579253099608598,-13.839388461603566,-20.531928467515883,27.94985599191414,-4.427054880653763,-33.28048763257296,-23.1588900626935,26.343653435034266,-5.558524412528234,-12.27822019962154,17.709025233415485,12.869956329761749
-1.4292107950182835,22.614786455906707,3.249388434594286,-48.0927423940753,-3.03535506420814,3.579810117592973,-29.28303571932781,7.244537898756015,-29.69919811896432,27.295414138175985,5.364881348922115,-26.618875666772972,-22.54575925786311,14.25378908218148,-3.229172389061393,-9.972900202279467,12.35270622721802,16.153535874062136
3.3651139347371672,15.775722672233602,3.515555322293506,-43.68793586289764,-6.361941196615963,1.8041620024328138,-27.79384555002181,-0.775878738076365,-27.6324435174351,19.999451424428166,6.562671753874287,-19.961223594548752,-20.56540645792721,9.87997804155449,-5.004909016161475,-17.43716604958268,5.137932322502108,15.630361806988489
2.7868456898715595,7.863191200926606,-2.7616179323943193,-18.28732554395889,-9.982101373181699,14.872043959639935,-46.22958152692597,12.881441832492502,-15.698958849277119,0.6908061803029426,10.787661138075123,-6.178415054705347,-12.139680564528426,6.190954561215766,-9.518522653185485,-12.990948451312752,-0.6149215913413126,15.206818284340908
-3.4569701859559325,10.986732335745984,11.469086683386237,-14.957894180073854,-17.802067750928543,12.900171248863094,-31.952742461374164,16.4777907428035,-7.3755996790804375,-8.364543319994688,17.45397686716266,2.3271207849643574,-10.35476904074148,7.581406924431917,-6.613603223809328,-10.989882880353083,-1.6831364764066974,18.886944834152384
-4.330990712902668,16.94307463042712,10.953249419066937,-7.136653877382265,-12.145711876130942,3.3105149491769863,-25.979597698884575,19.19305351874378,-2.760112624291299,-8.436134620990842,18.74907347638844,8.875853228051277,-1.2456641246984717,-5.187151313048192,-5.860602387633765,-3.3283232815504515,-2.265979649435959,18.565218742131027
-4.229796072715584,11.474165019859475,14.441181269175614,10.54765538908159,-11.47026913422546,-1.7873832180408709,-11.22005893671385,16.73034875492392,6.057689082712361,-6.457654569971378,16.91915253846627,15.714018554141404,2.785053413569135,-7.602540678486796,-3.939148386330608,1.009273117355498,-8.515871326417074,19.905856094888236
0.45996802453174035,19.189729347590045,0.6435202243433269,21.88393463530663,-11.283405996413906,19.28647614897954,-20.09650985706736,12.703073140772826,4.331395334602664,-3.503325910645728,18.897986822476852,22.45109598528483,1.737337204540104,0.23766607000420548,-1.8258083620465868,0.4604385239363573,-5.784131162914503,25.545680386378702
1.4374113514426998,-5.5164233027518925,28.838540349662107,20.329202532492673,-14.807750456714205,7.9374292373285655,-2.315225984727503,6.42768388242308,6.80723252627368,-10.510803376913163,25.564568748896257,23.22773303253527,-2.92399151983156,1.6340785840262897,2.920873058420341,-4.388823444142739,-3.5435387114306085,28.9416848037202
-6.668624336807774,16.751421999479728,-1.1705734673613617,33.03239930259963,-9.543034434804234,9.185673735105539,-6.607429095117499,4.837942942201831,-3.7026548490605897,-8.436815649086068,28.91103579997479,25.173058196028386,-0.2613091383124928,-3.2179062588751544,4.53910263119521,-3.1867340864601577,-5.505064933525276,33.51194921374494
-3.642969591831543,13.824166030457283,2.3168235145741702,33.9189978198293,-1.4463028634193016,-10.074785530873442,5.992311918717753,5.590127939781777,3.3685118976889683,-10.562803496876931,26.78898915970681,26.822320212456766,-6.974130796716185,5.115681356305874,4.493761381152776,-2.5739604763745874,-8.153006093549056,38.670583247991694
11.686285482585893,10.604501879238398,-10.114057968873885,37.14946075379096,-2.529380731908991,-3.4565439730825958,9.214059974495846,-2.448679200098413,-1.862630277443909,-9.857397780692516,34.92139563518934,26.12482256963515,-14.370957416327759,5.7361626454273225,12.06235098700693,-2.6481001465403153,-8.850576187184618,47.54268770495493
15.393011339665385,5.627531488320173,-16.78317185057843,35.497206378571605,6.446383603828597,2.477470438681176,12.628270829766567,-19.376071051272834,-4.845173097102602,-13.254286178508199,31.725964368373035,26.1080722631636,-17.959570860637992,4.893708609482311,19.334612250976804,-4.092696178658157,-8.574323663685101,50.06956544483433
10.113983521267834,4.65502833990497,-20.131933352189765,36.48197226805557,-3.034993394901388,-5.651875981641663,37.524331253779025,-21.16817755915588,-19.739584181433194,-15.186965548583782,37.51557398535357,28.530026521649653,-30.923801980917922,14.697952633325018,21.232361774141694,2.662771891689756,-15.332152330697806,53.08730529975916
10.204906156477545,-3.3483665376269833,-12.93364088276725,31.60762700382758,-0.5042205219640392,21.667867132441188,10.170649044124461,-20.813411420543176,-19.78773818462659,-23.565700749240712,37.251000050171314,31.632964623555132,-28.16564542607575,13.566605679622075,22.540849195990994,2.5790747846784186,-19.45591310106489,53.86153445346919
8.536780316390482,-10.863042557423206,0.026505660797701502,21.948497950928093,2.80813804639466,13.341840517215534,4.982425964484603,-8.252957953944346,-19.05244514854791,-29.30830966139557,34.350329792368186,33.659166388217265,-33.904252461016384,12.632719535262595,23.74838482752004,10.4025946725402,-28.660532707112342,48.87661502187969
2.8634938560199776,1.5448541789141217,-10.744101316996638,25.86433259554091,11.492071649424592,12.046451651231017,8.385242084941403,-8.096499581115612,-21.830740971308877,-22.16071704075558,29.69254789589118,33.82748942960122,-35.24883086316729,20.001953874933175,27.49175045806465,11.582392334805387,-25.26992352763741,48.67962053348427
3.1461519312034727,8.191300722410894,-12.920719342521497,19.72205015403606,15.000619474304182,13.77770774858126,24.090099651151988,-20.734598586364815,-18.25928896548212,-23.021666458205278,25.81681925151597,33.60291963725066,-45.77383367883327,35.18608503057743,25.665377619578393,17.056199316502926,-27.839017627737114,50.53616868103706
6.9433264917042665,-1.3731192358421715,-13.046385953458632,15.045356161763248,17.826112216582917,15.898823951512004,25.631761379034565,-26.8309532290414,-21.717294200047874,-26.324653577573017,24.676360867374893,30.93476437436378,-44.48287156972454,45.392011827278615,17.683344960475495,13.933259100209607,-29.824705969082743,49.368088218725575
-0.39362822923795715,1.3676155705637925,-15.027379139109442,11.443711610242989,17.331865028298047,13.038598291888077,22.19006731352956,-29.022252852115493,-21.267183925930546,-26.79614691873144,21.4860041805141,23.967646476559132,-49.93093751991588,55.600339512444236,9.405143077324677,8.463732711896366,-27.418294372749173,47.90982394911493
-6.462164168916619,7.428953536532179,-24.234842428089117,10.089100974720088,23.7720142090973,17.013590729865683,15.13224047601278,-35.60933535244024,-28.92095368083767,-20.822796189954893,17.22238574085314,19.342412044138662,-53.13353931123158,66.5923881984128,0.14719505442637537,6.702466121075146,-22.670551232932723,42.05977572561231
-4.914513331506482,5.8731876784685095,-23.285665338872565,-3.1787569380409177,21.32607885717253,14.542321727264582,4.5559554674413265,-28.427790753924437,-29.73706196065308,-12.408554412178663,6.905018345923278,9.73485009691062,-46.66870604543503,60.59450504567018,-3.156771234364919,1.2275375322288973,-16.069719301677814,30.841387980474458
-4.246884389879771,0.8995602417441297,-13.351707467272542,-6.093806821867234,21.517744695725916,18.027297176531707,1.7895292241970484,-21.930894076688638,-31.821193058096497,-10.14728795556686,11.33505654181895,7.840586034523568,-41.27880393921542,62.021178624628845,-4.315378287960512,2.9766806224561178,-6.443857989590297,29.977575647848987
-6.119444364767913,2.4691197314378215,-6.640152508723661,-9.398310214278794,24.444741212899537,16.530822911168716,-7.718020213586476,-14.16541987900754,-31.364785986432693,-2.417710529384199,7.953616564200162,6.140092595239814,-42.43267867288605,66.18488862272616,-6.7466166177536815,2.0865306995286037,3.277349920512737,26.284559571467458
0.7961190130094753,14.781107660968457,-5.983040586254342,-13.385151239036176,28.3493001752382,19.330356871309462,-13.810264287488426,1.9977175292163487,-33.25081754860584,5.409017836857421,18.245453724565486,5.805380835827153,-33.13789311815092,68.20279694760606,-5.762883292529934,6.565089751488911,14.558821617088967,26.110105673635594
-4.105963153300438,15.960148689243047,4.830848003157177,-4.089184846164967,17.99688453601653,-2.480819432059489,8.317888867598995,14.058397989251894,-37.47937636455276,20.461928325296125,20.432942690517056,9.18035404163248,-34.781499446267375,62.1178281018496,2.4445059520016343,8.11151735336026,20.173937031382614,23.106470776143844
-7.739539545862238,20.264231176646454,5.098107667036315,-1.3348450674795043,15.946501998164361,4.125419524313095,-8.717373266601168,18.305697769677288,-37.21450798211969,20.76804604028864,24.379564139428698,8.354852032702803,-36.91412397855122,50.17615454625973,6.644944375346407,9.753271082632407,17.193018226716227,20.886998385206915
-6.295944286900003,8.25942307573614,14.545637684694935,-0.7274474830704989,9.698030865688631,4.578206468064003,-19.9934597202456,32.51339568022819,-34.3117954802727,18.925236590200395,23.444638840691802,7.723589039801935,-33.773962016751966,41.16701518147298,7.9127014528302535,11.490418676315207,14.307659862139683,20.916558992505195
-1.728318288157832,6.606245717797192,6.512911201526169,2.6159798147241666,-7.096213618470497,18.60437782774522,-41.33089154198205,43.69308199576003,-26.232222219337842,14.933517614687633,22.0228103499135,3.282712700588805,-31.708766119827125,24.543414287946838,10.44709528452798,10.588611210533681,7.12332089390285,19.67947569454224
-5.1696301513392555,9.933481797972652,4.437822465275422,5.66813045858026,-2.4044250243383996,-3.894513907684356,-37.86582028354832,49.01275147737243,-28.79642522984921,18.558681294755374,24.899351313674103,0.20819719187285202,-26.12861946499242,8.313324787496,10.146536982088218,12.516749957335586,7.066015616582266,16.687458972184185
-0.4086813528584843,-0.997484860174044,14.765819331535676,0.8117828601157839,-15.973236607779782,1.4379555305609468,-34.50093208455617,41.53877322192038,-19.34789039536317,11.92937990181697,22.894475654057953,-1.304529181927058,-18.303067192674597,-5.277088955321645,6.620432690565759,9.462283517699193,3.198137231656208,11.159243618543112
0.8356128399990981,5.942701208685921,2.3401527314951345,2.9886518581180823,-16.454447483700914,1.8864171291451939,-42.076196122043115,42.4629448262047,-14.293198072702488,6.666903804871446,21.477056419375895,-1.7436435132790207,-18.974452839270814,-2.5557087674681753,1.2360287723189716,6.112851184146471,0.7932651672929047,4.169059118658371
5.008676716465722,7.706772722095572,4.661432618912418,-2.15687140496681,-16.934129208155422,-3.5257320845260463,-26.801991949405235,26.491978848660434,-9.92143252326212,10.388576632097624,22.11199741276409,-7.35913086912316,-13.10347420024364,-6.1790974915312304,-1.4167221024589685,-0.07058059907465097,9.617236228040463,-0.6697660696009251
-1.4639022703626847,11.814335594777402,11.768607585510804,-11.69497754611107,-21.806815143236268,-4.935085352006823,-31.7453382395579,18.82163870415699,-13.947631937749248,15.086484226295404,20.990682570497057,-11.705471495257186,-7.428502835588148,-18.002720900307416,-4.365170121471807,-9.8692061731617,5.060363986945289,-7.458867127918261
5.148719959790072,14.652014003658936,-8.467680455388711,-2.9689955475347176,-17.205041927288036,-18.650509616582504,-25.948684288498573,18.573070340041284,-11.332579350954003,12.85037084159087,17.52719935903636,-10.680932889173953,0.6872349729195761,-21.71770657731671,-11.6132420107309,-10.587451877087794,4.701107022799118,-10.534107289433962
3.850142399951113,9.28606970508087,-10.148254897580076,5.466177286746936,-10.550734238806614,-0.9213609015707451,-40.955430754648255,4.652266595742517,-5.982657647284849,3.4849429110242958,15.725547146597465,-4.773697916162184,-5.455717443362797,-15.370871281860374,-13.98106872464657,-12.967601849304357,1.2152014142751728,-15.461991865556286
3.722547905001009,1.4782715259361474,-5.187320985819836,5.114388793054008,-13.562758023834888,-12.393118626559094,-19.147459255184522,-5.45997327767794,-2.194878903160925,-7.247970236746188,15.976387045469862,-1.4056506674132745,-1.4429060599650043,-18.396078140945413,-10.785003768321417,-19.939321213918717,2.9036228682260337,-17.652623053846277
10.820729288032503,-5.548711987352931,-10.088997451380955,3.0070652846079806,-21.358164121392523,8.263256110195949,-27.71324104893369,-11.470613277846509,6.085467057414904,-19.446002893192603,12.029651985671162,-0.47903101600638864,6.280279291429942,-23.566628406681197,-14.52519473771186,-20.467218484910955,-7.421321907225862,-19.547462103073606
7.273332935017827,0.11932765938894896,-15.380443861216806,9.98428262399095,-2.3934410475673937,-8.484568613626994,-15.773037356164998,-17.57887447288768,11.533981837008806,-21.97614840416722,8.865913181890857,3.5727527424313283,12.34268588102583,-26.683214368276623,-14.361588523736511,-15.527804479160327,-13.35306244671908,-21.830132604468105
5.092273626974706,-6.81099884430501,-8.659087305227391,16.475646558775036,-2.3723505246993337,-0.2333167576908508,-15.16321313505409,-18.999466902826203,16.299069685010924,-28.31514976095858,12.832948404169437,5.28096570798084,16.15839213906434,-32.14041045415564,-10.78242908039317,-10.003899924689899,-17.235313270458224,-23.32876265909853
-0.41000749910995227,-3.9761023202196633,-2.6203938327741096,18.77022471042382,-0.6890495013040665,-10.147728264267347,-3.6177432030534398,-15.341700021422469,15.40012170291195,-30.65036169852062,16.899423244432892,10.11453780948364,14.211746118987879,-32.027916761520764,-6.326772133240516,-5.653278214181162,-13.892141816641688,-22.5785086318795
-3.569348923277019,-6.708279870828889,-1.8542368243442064,18.821230987816868,-8.183488056848034,-12.055546397786792,7.437479318510341,-13.734530426648101,5.02842378719093,-24.391843438615275,14.619947986508684,11.432837034272728,10.018454928006243,-36.50211616470556,-2.9477262200089482,2.8953018940250796,-21.878445318147975,-17.723897327844796
-13.174934728508969,-16.863058935511688,-8.8020191607036,24.83197192503435,-11.867128509947248,-19.921844369897734,5.5023281485574635,-9.490329362777656,0.6138385888052555,-37.86031166599905,8.240670070636678,14.99776210686012,10.609906021331863,-50.055243393271084,-6.504708763562282,10.173072041522344,-39.82694099602009,-16.479915407473676
-11.453043733127796,-42.64371842918958,9.739931622833666,20.493658438454144,-13.693068281285793,-22.125366157370472,-0.04798728431942578,-10.81229102846165,-6.535231072267441,-38.92634093587209,1.0819703985813014,20.51642950852423,2.3140475897873074,-54.22996496680997,-9.966314796236066,15.203519421904012,-51.23339536606493,-12.30352071851361
-6.9975446378400115,-33.95186466350859,-2.1862285837008097,20.552659870981106,-9.559625793124576,-22.963065995395812,-1.98672597898749,-5.200170024802155,-11.53595447587184,-32.27747283911462,-1.2896437461606745,22.52009304707704,-5.689259393855851,-46.38950197817988,-10.695736994006865,23.064910573811797,-44.769434233385624,-10.37060110267311
-9.281225843122767,-27.409175350722705,-10.497907333136187,26.18091665847278,-12.650540394049012,-13.548101754329341,-7.247517461263268,-0.6618477521874353,-19.954877038243524,-23.480167625428418,-3.6593871360120005,26.087039931175855,-7.4428578459906145,-42.64736225570519,-10.255450227333318,26.237662967276,-40.650132583386686,-9.899923363699582
-8.050012275652874,-21.257834389803193,-13.144250817946606,21.46026159941004,-3.33655170176606,-33.62718439009572,-2.939468277842348,16.572469009813393,-31.20610445217989,-20.05403934650481,0.9064527130429951,29.361855201652403,-15.642217567687709,-33.23775308825162,-6.496934642904489,32.046169939025745,-36.043337906960005,-4.6414219041605485
-8.089120875487906,-14.228312352451447,-16.76594400097941,24.6527333473603,-4.4695172865560515,-15.132878188833851,7.617131829805409,-2.716670398951856,-35.621570449526274,-17.018510323853867,5.181214445672648,33.028222446154885,-12.025303308494468,-33.19994833590463,-1.47095264993182,31.994270249864016,-30.85131366944855,-0.25927640858805745
-12.035298331268926,-16.965321996076877,-3.4915789938478343,34.391161519100685,4.849371833027911,-13.730102587929204,-20.793175794387984,36.49176399491636,-37.69357892542458,-9.100028680132374,8.383646077423506,40.30892372604886,-18.95569834438433,-15.971025123171113,3.6506535302007777,38.09392738304808,-19.70280470037545,1.1956688984160984
-6.704737462312723,-14.6249037121723,-2.6184363468433527,43.44890798424643,13.877815763446778,-21.801559766570932,-14.536378516526835,49.13792773843155,-31.562711140778713,0.8693659905191513,6.509788762211548,43.684386850976914,-6.159462703898326,-13.582705216741225,8.379646345593825,38.040326793889605,-3.671966098856341,-0.8625649721288049
-9.089872827508016,-12.285274616390591,11.342195625803512,34.93121493604888,11.482882540900084,-28.507244791982686,-3.5933245142344514,55.53467632301375,-29.82685904769587,2.928620002248863,8.641819437663067,43.15468272575105,-10.355864899929589,-3.2807187256787658,10.372291631870684,38.18128155149475,6.303615766785661,0.5973459134628918
-1.8076144989996563,-16.391857851145378,5.284384513196456,39.20966733578191,9.18823476535476,-17.245344340851226,-6.518904960196352,50.603851089989,-25.064075666683426,3.3278654471948688,5.502258543928571,42.52853117440907,-10.939078797457508,-0.9832614201012415,13.5349510060455,34.41522576586694,14.911593336693407,-3.506802384006086
4.692671462138185,-18.253124434388837,2.353056179506096,39.584815890078445,5.724369893288909,-5.105963684918381,-18.234836574215286,49.28712835586975,-21.083051930026933,4.801556663361028,3.2435481568035573,41.41536620721435,-7.811402571196185,-3.7605857979270523,15.035602391965803,28.207083967237125,28.49980091976088,-10.44062793880584
7.969553628432317,-38.767838178784686,16.317993359982147,36.74028550239748,6.1695372702458275,-18.16371840979076,-3.4865931054300177,32.73660456732371,-20.91121464999321,4.712973148188608,0.5961408417765774,37.86209497207568,-11.422169280620636,-5.460239517134046,16.92511106301475,17.21312805714062,29.880557639133627,-11.31731183064809
9.390252371277546,-22.075776619982847,-1.3566595236557581,30.578435575381963,2.027559109789479,-15.597670304809467,-14.618640013353353,27.710539016270836,-25.5251759079211,9.409907335917207,-1.0727530639722538,33.72427343901968,-8.68519563282921,-15.066720552830539,20.76605390348141,2.5076500901250274,29.503323169668427,-10.726803855937838
3.485946177670772,-21.205094964976723,-6.627220530899142,29.693160780703366,5.115066290490084,-24.166035515242047,-20.087442859866783,17.607152565164714,-23.401354875378992,5.513288974724762,-4.595207212899094,27.830064576076396,-11.612336645148492,-20.95874431848097,18.452891807834046,-7.4130703636121,27.17286351325751,-12.966081113264
5.100623401969729,-26.390018878002284,0.5063513165599143,15.627158152306901,-2.5369223653644637,-24.825548225389234,-11.592008319892763,4.672608115011167,-28.40718100906635,8.355424214834558,-4.3070729804674635,19.20294376756043,-20.105886727875372,-17.66746447785929,21.31397621818056,-17.822495808037296,28.846382218465088,-7.781117890416127
5.0544682374491465,-41.14622400441049,5.395435790394879,15.62694348073997,-0.42023976395062945,-19.23638168143922,-22.04290844820678,6.4853319657109765,-33.21835203083293,6.412741450209849,-5.579527444642373,17.31576152946795,-11.02091286679288,-22.77126200588161,22.02503045029413,-23.44705350546399,32.47314798242375,-9.918270370308075
4.714700721333125,-36.762329027422,-10.905528115946717,24.321343718357898,-0.35143216936366617,-16.968984226135355,-18.724713052156016,0.09578646581039152,-22.502628878299934,1.6384379781430694,-11.635278419587983,13.867656616098186,-10.627297887061745,-14.687764740716432,16.484483469220535,-27.118763823248237,35.9047715304577,-17.52207928387707
3.593043734152295,-36.48086763574598,-17.048365476215043,24.815568850612475,-5.162535153559432,-26.51956720360053,-4.469408563804784,-8.245903516968133,-17.940053946708463,3.603015574602807,-18.763335142445282,7.9797529873876805,-6.913089892379173,-14.511033644835113,10.25888072733347,-33.23217162801578,39.53196453481369,-27.858166026909075
-6.220768190174727,-39.81353989133025,-11.763485592924201,25.70349541439667,-12.412067750522374,-16.539982126413207,-16.093874289670904,2.261388395807522,-12.01100331846475,0.4899316578428099,-24.71757388062059,4.144347281244929,-2.3196820265591285,-20.092588240033397,11.063238166672724,-31.43550367084528,33.49137559857253,-31.844399169689048
-11.640586485223203,-50.56898363267439,-5.109595919592105,28.254665821891074,-9.306829998567274,-33.80827077010363,-11.116903944922282,12.672086588607781,-5.789732245655582,-7.114822637903016,-29.595657551136597,3.4357122191333396,7.547574788021937,-39.83098472812225,12.452199612335988,-21.72870779718951,19.247950776018264,-36.80514787089648
-20.869650033496978,-61.61816700522279,-1.4812553078039281,30.22294024179267,-21.14014208002169,-26.565813273506922,-14.734104660486322,15.661884777525746,2.0909494329804623,-32.883285534420864,-29.5889403138288,6.635144310576731,4.1337610180956155,-48.23754426467461,9.445275194199112,-12.119667184079937,-0.17084048414974307,-40.78729618818522
-20.235864027584103,-43.56609060680213,-20.312314950118548,31.217672328521896,-23.7905091897327,-38.270284591113025,7.137165096699086,13.379275740543044,1.376962656831548,-45.85790732080052,-23.525536127844042,15.109883535870406,-3.3812444387182534,-42.870815502581664,7.511353441750568,-2.8036464440270406,-10.995177802559686,-35.099344295731996
-15.501024053985265,-53.44485227431612,-5.93782426722343,32.60605150979278,-25.26583458697125,-24.682707235834975,-1.3632315116086033,22.523753820037577,-5.978552319273305,-39.495572649763055,-14.92113126751471,18.11760715086096,-5.915220283431079,-35.54737802972765,8.603644448644216,4.0709343501624,-18.010211943950793,-25.30782259570276
-12.231610333830151,-31.390232137970848,-17.635993255357718,29.993457030127875,-24.491853296807946,-23.889576890134165,11.328083021013626,31.27875153982694,-10.502807508845583,-33.425439884179355,-7.877359215132767,20.541227911170395,1.317114268706371,-27.146145472151957,8.718236375771372,11.336199201595814,-22.680731058409656,-14.537818143909089
-9.646350106546237,-38.04765893298278,-15.269452921049465,30.411220256238202,-15.023126280153386,-8.156070651254439,-7.328664700190862,24.995625283832293,-3.6019329032875795,-44.2492768273946,-7.472431604877972,22.771399631264927,-3.8524963138097394,-18.15540149676371,2.7769824666707583,13.71867899615758,-34.47945857157467,-8.355861653127317
-2.37405696817157,-60.62393812786825,-7.236731633756648,33.078049917431606,-15.121624446315467,-26.99463637632325,6.632435897830053,22.424676914519885,-12.620105240320704,-44.036921204574504,-3.1593223860855995,22.659672018662462,-3.747949714048506,-24.200380568732974,-3.9465433460611923,18.835725618573388,-43.64054372374216,-1.7814480564192612
-10.141583892074607,-34.46961254849236,-29.573498781380792,36.724362670613786,-6.52532564035663,-41.24449223299274,-5.676141828551302,35.18719164768141,-19.783623748812683,-43.140044349494694,-1.7740839793934766,27.23741952641483,-9.306861694847477,-23.503403838326733,-11.549942591716867,26.101440070689584,-48.992017552815604,0.9860999794193823
-1.9914169017184338,-47.964901252180084,-9.524701844663758,26.99443468389344,-13.453326473682766,-8.522149372174917,-24.625101677254257,31.44675875898165,-15.033747625983752,-43.80472469661632,0.29660867212090913,26.055278335859697,-13.302508663921719,-14.990234610347562,-13.099459252078468,26.238383762233568,-50.14317373390937,4.048367531303113
-8.881049472828625,-35.581422343869264,-9.005312615137328,28.986265899884422,-2.7996319634007576,-13.496837329683713,-11.932519410074821,27.414574138342672,-17.413741192562927,-39.87847462804402,5.787160255245383,27.0235370334615,-11.63321511699221,-4.129706115610773,-15.724051620479827,30.672558288280694,-46.41033349750632,6.3310792725038265
-11.864870097851195,-19.780415382243312,-3.4055458358416364,20.82448008839393,9.419907652733542,-24.91804662241331,0.5652713549635244,26.801641454566486,-24.09153360837358,-25.01349072193828,10.009986505446859,24.868686597374857,-13.67407418723215,5.3671863051063085,-12.4899631328278,32.66562485481689,-35.644952817488054,5.490409070125644
-9.478003006678632,-7.593194663538018,-4.444296354149422,16.962377266922797,13.537193250074985,-11.535266359338381,7.594841772511451,19.64687933089913,-22.859909681950192,-14.639645369371179,5.250112521595822,27.696325772335648,-11.514759598643622,14.57467504677349,-10.330836040978493,36.51456858700739,-26.831470968894187,7.874069471914883
-3.478278133028526,-14.351980173161465,5.749835411839426,15.642069593714314,15.509362064912544,-4.012991559548201,-2.5626485076015992,23.43103000686331,-20.945543287525762,-2.799765726160796,2.445191086260952,24.861764626844007,-7.889639445538,14.898874599976342,-11.688056263187741,37.04357311338569,-16.649452983771802,2.837326043493997
7.794495186471092,1.9361036847870992,-5.733776722224151,4.265657167936965,23.539677231374466,-8.015334502071537,5.054359183865785,20.673363458456997,-18.153118907452313,9.334306067799378,-3.1900218524111956,20.271314009091068,-4.654162958511948,23.234567902218764,-11.483363439135859,34.15502386706372,-6.075405571702567,3.173301780860079
15.258155862211296,-5.506951266183535,-11.648591970997959,18.185187689685712,40.06959302868877,-13.678825595545016,11.598007821609563,10.2019910450307,-3.5449685527463295,15.903156290081427,-11.167253039071523,15.096865616509135,-1.8082832077041822,37.53093447856272,-9.619041669609166,22.087156698542426,6.941553287953035,5.659250090491351
14.713429443648224,-12.55963195585031,2.556423214704056,15.017145000789672,41.27062939477599,-3.03440170708706,14.431624254997775,-6.615875771821759,-3.391022260705114,23.156930836968925,-8.791012349300455,8.752469476386718,5.0426440344645584,46.850297583730686,-12.442785622961281,6.601820175637645,21.815545311846964,4.8262961461573175
13.58231215996252,-14.143682844501992,9.244157563003954,15.074279506807674,40.521902965009616,-19.442059481250958,27.813323280056657,-1.2641748313065975,-7.144241162231481,29.142525173435253,-4.752855386085142,6.511637760213169,5.742258599027803,46.700389317417944,-11.165339971223972,6.351683987292557,29.366809656981374,6.240889545987341
9.911656763688228,-11.040311115101087,22.282038216396476,17.965898203744047,42.608646902995844,-14.951807585289895,27.524068874181744,-5.969959314519983,1.8948520199933725,33.85998920980277,-1.2989275303666608,4.663368369359006,16.306473450919793,46.35868105584601,-6.86088087486566,-6.593324754527789,43.26749513982644,10.97722362962365
13.271928896791058,1.8287420303767021,22.52917494272502,14.512109083577954,38.83932385802614,-1.477848528799715,32.60720258958025,-19.366020686109543,-1.0788043120121955,46.19622675874429,6.55129798847161,0.4732345183290221,15.641258972351057,57.83705874640402,-5.291155766992197,-17.584504719061954,55.11909967109729,13.175791975265579
13.311414745166477,-0.9274780759624122,33.13047772138524,9.49807469864351,50.308004819923795,-24.528646653731144,45.30893327022236,-25.14351697752759,-2.295463814157145,52.38154538397226,8.641397608288685,-3.714990088807806,27.18451361409437,53.20539040748467,-8.99520641578745,-25.449923146901156,57.49969683396544,12.641236879774267
12.569221707228659,25.223017177969723,15.90179439904,5.267511933654909,54.065117556578734,-0.21615993270875933,17.386416612584743,-30.52912232065802,10.159123285360195,54.076174975895015,4.678378917194376,-9.952131960491965,39.51032106079556,52.190518984437894,-13.383059334477295,-37.61152879495719,62.12827546447542,13.084510040532694
26.670593858895767,-1.556898112013208,20.74625305008644,21.25424015177092,64.0757131812855,12.474380431270355,2.3561719577219593,-31.421213640861367,13.140078441966317,52.549713780165234,6.869439645575362,-5.445042918901525,44.61078426800206,59.18701992285145,-15.134291450561149,-41.17846081087434,63.340744765298865,13.82196465057286
27.978395881303022,0.7653392101750782,23.640071039536792,14.977069543122202,56.7066104297369,8.855447250772599,16.527117995689185,-43.15205872852487,11.139663867614466,46.04436935572027,16.581767782505924,-6.404925331636999,54.59549893464075,49.878090744138724,-17.56920583285968,-47.967266898245036,62.309053798293704,13.291034053289426
15.613712732037577,-5.21312289647182,31.809941110790596,20.030188064548625,52.36826643089377,1.8179069667757304,21.617494947647458,-42.7720917512415,11.18924322035567,37.88055095930548,18.87370813921833,-5.702783307906902,55.30412685386258,41.35380845168301,-16.97674809418661,-46.64961061728318,55.81055131984254,8.073654353623791
1.8814237620544225,17.617720132343955,14.200720369890258,27.526665037798715,39.04876620546716,11.576956840010997,3.8576340085550136,-23.347616712718867,12.995849757781631,31.183351541810666,21.753173898389345,-4.7058458958257035,53.57274206684481,36.25090216939164,-13.552173312229604,-45.13573058269278,50.193042585403845,5.201139690916332
5.043529946062583,5.2921125837763405,23.25463220692287,26.333440217444014,35.986669275708294,10.104870719396907,27.213425656102732,-34.48876956016851,15.973543537023794,27.5153393599622,22.77869950321879,-6.343867445929487,52.23344932487209,40.52646185564211,-5.049292949299838,-48.894422140175735,51.51135757322119,6.04065513382031
1.9551499191289814,19.43215321816917,20.20156916097969,12.54412471963683,21.79491297326102,19.374685530872057,25.961279532317032,-26.194791659913214,18.266833926057004,24.142141234525983,21.169000455165772,-9.444978597763729,51.8722233610837,31.523857296120045,-0.06192754320644056,-42.39806673746179,49.31616611132104,5.025666078290429
-1.426591637224127,13.064534305770188,15.002634517336707,13.893436197054442,4.090781217255298,33.42932455786846,18.94920624845616,-15.555792179191851,12.551396693393393,23.016954632352324,13.40837503268225,-8.442712975419518,54.246929756273225,17.8369328357876,1.1170103255053796,-32.28735307318006,44.29111833844312,0.6912629045711536
-2.9532224150538946,18.904664506638092,1.0171141371465504,10.263798510734233,4.358954858821203,32.63962741600398,23.85332148769576,-16.43917515725362,18.358785912991642,17.987383703638493,4.379686696514443,-13.493501573607482,51.6426312362767,13.43070627660796,6.495515997694568,-27.156124905314385,36.24094267960321,-2.2750264574356076
-2.7223986306782493,-0.6456200874591076,8.51891803991529,10.737298848294753,3.4584927542559356,28.13862173525203,22.118717244738264,-15.075204447082971,22.016923701269477,12.080859287377132,-4.745195654158657,-13.4643891643423,37.71159681138093,14.008195804816186,7.675084444251526,-20.754249773288485,25.946942931704317,-0.7481979759150725
-6.202952702133201,-0.3707195171153259,4.206765789821163,5.645737467411632,-6.423250407901573,19.145090644080756,21.851046429642572,0.7433320023019698,21.27968738660568,6.469314281208444,-6.641965891697126,-17.828204738058936,23.391513414075412,11.561423317287037,10.026951933210743,-9.66366999645325,18.09673049990768,-1.466679405407843
-9.976863182436562,15.041861096587919,16.792040305410282,-31.7691905678493,-15.422870923581257,15.815483893035765,1.4680067669222794,21.250654472788092,24.74096299852497,5.547386137952051,-9.806872154153943,-30.39362933053617,27.139711890338226,-11.390392197446875,10.328473503275223,-2.9665189870061837,8.784033699728203,-7.555562124203689
-11.700344248205441,24.205143101511283,36.7042887298012,-62.34681611401882,-25.493553520964063,-8.413059396310878,37.53332260101702,15.684568892761874,19.412275476045195,1.6001516758701388,-8.087501885184357,-26.062653797567435,15.264287788286648,-9.924737865341843,15.415751297319023,-1.4440226437651464,4.258983909392942,-4.561544271423077
-12.349973718730773,4.267281679990408,-14.963938938295701,11.863489174952376,-22.7679308285826,-16.918842628484825,46.74499541732534,29.35826054973804,8.41867630041984,-4.200458777603377,-5.683163274075158,-9.71819605074889,10.031219711896728,-5.526366117302448,17.183253055940348,14.728375859455184,7.25603200012187,-5.277833448372054
-9.972597684921402,22.416868265280996,-3.054327963337842,-28.477644278406068,-26.777584335863914,20.27910400947483,-5.56542098882575,44.790987630193875,9.143246376137471,-13.51459018768126,-3.179828382004761,-11.536529467758832,0.20987937880705232,-4.933712581590331,14.849776840813465,22.60114267694172,-2.3422841591026113,-2.673115950198555
-12.576152207792067,25.039869491282246,-7.841540002736359,-26.043682405531126,-30.29587640262435,28.472652391840384,5.897003224091317,22.724332099802652,15.042919584042572,-15.11156663499904,-4.483832659597984,-16.869025414145106,2.5974079363645597,-8.928092645512049,13.200611686926477,19.928184335322854,-9.691957485577802,-1.14203358997257
-18.695773033491918,-3.09825646812083,12.374279074742361,-10.034374734820528,-24.24067393478505,14.986175543403244,-5.880731482503837,37.08519660338339,7.074438327946716,-13.1906359421321,-0.6106900528552455,-12.727237494571739,1.5685748464116323,-8.525049540739587,6.8646414182278095,22.04180000558869,-12.35151559587647,2.0497869471429357
-16.319560457109787,10.17162556720713,5.15092026323857,-24.9817357947744,-16.815265397573864,5.11307005428147,-6.425398246724221,31.03676963307654,5.257640280782477,-18.591773049542617,2.2871356070737656,-14.931753259672817,4.350058835732662,-6.752030346529448,-2.4002353667380287,17.711382920584512,-15.789764705584403,6.316355927913251
-14.822660356420018,14.067555444240526,-0.3119563288417684,-26.256263036300886,-14.172128219649409,0.5135587301483273,2.6028635964126074,19.52067861847988,8.518290414140017,-31.217286781998915,4.795564424490723,-9.419892333873978,1.2737476920128827,0.6878466039338846,-9.125126216292953,15.628504645726412,-22.350464941386633,6.872400928580325
-6.68543006912193,16.890505217721035,9.364753864630833,-38.66310669361666,-10.647154735857455,12.223006711702771,10.168769299478985,-3.4202054162832507,12.266474180290171,-30.949650010741102,7.79348961936687,-8.203591469222044,0.9335247468314343,14.1851516522887,-13.798261114823152,7.004000574732018,-25.00223492267434,12.31176007917044
4.869421132947186,18.347565158285107,10.840843480856627,-53.41315381832099,-7.9005692151643085,12.506655540839974,19.397404062318895,-20.500469255457006,5.75983848723328,-22.183429156491435,7.6675482903757155,-10.599281667268421,-7.80359200485988,23.192786569024854,-17.29850131061574,5.4123278789755,-26.772442003339116,16.8725838845387
11.736296434748803,2.032297688880507,19.448568619609297,-45.99439461198156,3.149754101186746,19.528883817318167,6.069683459939233,-30.548226710206556,10.09245257334156,-13.903105206315608,-0.367515389576754,-8.59906384611035,-7.9451572029910515,19.11680629660274,-20.504708372747377,7.533153947359768,-30.297824035633518,18.69933265268719
12.255009315673039,19.996340275248066,2.6678910862447696,-49.21991194555203,0.5307782541799781,10.828449394105412,19.40514125457434,-40.59484161024868,16.27980072191539,-13.823609316089312,-6.838927199418503,-9.917935474711424,-14.042177313896818,28.91068160452614,-21.073038786761103,-3.6259382112713263,-26.30087599780689,15.35052047335996
11.308441271721808,28.68440192592903,2.491626794018247,-56.83969174769073,7.680314128452366,18.339470493655536,11.649172844776471,-52.398159611218595,12.114660764067542,-5.636069373763153,-9.012296966931764,-11.821516179311516,-19.063299962664566,33.82405934511027,-20.95658996925631,-8.533371557538405,-23.277802966132988,12.49025411864567
11.826318407236691,17.842480111987296,1.0483953436159243,-32.62279275360567,12.098122949095814,12.276372647176304,13.173363328681472,-48.868082268356446,9.608929024821407,-2.3289361344569497,-6.204047009266505,-2.981544771780543,-15.00059707240015,28.290379813568947,-21.424855548889443,-3.185150535697602,-21.912192174275877,13.438854879871256
11.953136957059133,-0.3221484482265895,21.7760388192592,-28.718527479907454,17.49514954897732,-10.48585651214175,23.48944950635864,-42.9930948076692,15.012694070220176,4.887014850346429,-8.86358193395436,-6.347627138344405,-19.041839194281568,24.126159636216872,-13.297951385021937,-4.2807213214043625,-18.39537615944654,6.379694644495646
14.618621808884491,19.210792609874,15.845670020768939,-21.49380098761531,7.367185331709464,22.31954505046928,15.643918186566383,-37.99590812074644,18.462516225098252,11.714869979979738,-4.295421819732108,2.2993190666501215,-15.268824620924544,22.50322041913447,-0.775104198499458,0.8754488482716328,-7.356164953180292,3.9105806903446716
15.9164554181298,47.14403831266784,2.202871838002711,-15.538604074737641,0.4644647075762638,30.613263739937903,37.87971367537475,-42.56806620797584,21.71622574787445,15.51789634207405,3.105808875128179,9.384830529070186,-12.177788308079734,28.987980804189867,6.182652118564405,3.396531300221427,4.760043528617953,5.054894811955068
15.065367296312372,44.80517949219751,4.480797138946713,-3.138051069742443,9.287125573967774,30.704174439620555,29.35608214248098,-29.1700911303816,23.308946308096917,12.585124966199345,8.8478281246011,16.47139345890116,-8.010904108817378,28.931706034421946,13.434837030485655,5.821652069579906,11.410192308127181,1.707004211841308
16.850577511811043,34.3625779027517,11.741757254164169,3.6958814471480084,10.885545055236296,34.799525886636374,20.249281179264635,-17.528850828301586,17.869490788043375,16.881636910148508,13.711872069647606,18.18779434811999,-6.674496402842607,27.803154717406386,16.977537657905703,10.299305320348193,15.621681623704898,0.4099375947707351
16.486846968929278,19.527281192185498,19.395815117189738,10.041322717646779,17.56454340617143,24.05140437719286,13.391398769904194,-10.8670548184556,18.093352800929495,16.493211140431015,12.522054929915521,18.342647124759985,-3.3833522853803792,21.109994954356058,19.34990907867411,7.063739987144601,21.00785684193316,-2.6449962636643445
13.485876511631972,33.014684581621154,-10.252941727568025,24.394424226227535,17.312162572086482,21.50706564040063,18.450562365118145,-11.723808110450324,23.78520305836022,8.587795487552146,9.087003274289533,19.182041771795586,5.671162167839241,19.00855495291,18.79416513249471,2.0721002138920372,16.924031963432263,-2.3796336651361223
5.894500262813297,24.238129685415856,-1.0315021899373296,28.10248707774028,16.37844093671451,14.764004644766754,23.805509752176725,-2.6183786777945146,21.956547106351337,-0.4868356251033612,12.098230966672904,23.63567238819622,14.141274335112836,17.20181656913517,18.435405957450016,2.551079794146072,14.79616896463412,-0.25887888591764696
13.634885528155767,13.901107137036295,6.434486185449401,20.384180245155854,19.255576644336006,10.658290078024685,15.100559715456756,11.27337007991105,23.349720137597473,-0.28128367701474577,12.86417444844976,18.422048186849963,19.097230935515725,10.318525814852334,18.273683265979194,8.598356501361405,21.16734153330566,-3.9000731719724513
19.42160002560547,0.7341147481585484,-1.8200624888294783,34.24775226015266,13.34566245218939,13.877519263337716,20.461145758966232,18.134848696578402,27.085785066236532,0.708247269974505,7.380842046471273,17.408530162490152,23.95703024176664,4.706356928287597,18.211390260598286,18.94439874039896,24.025651466823348,-2.3655864398540394
16.809220049816954,3.9757744653858005,8.189714935482632,22.329133043958223,13.39495755157165,18.464594777448337,5.707060979713781,30.759218460891034,26.23102372578784,3.7513261665660593,6.78119220694763,14.54030039542748,26.96280875526832,2.2207276267936003,18.05326160936484,21.089033778177395,20.832000113750365,1.903101741423351
17.614318741800325,-15.14399070207454,18.787735729265048,28.86721435072001,12.079071119067462,12.798269211131238,12.440502670298697,27.36880087099334,28.10974683334963,5.136976209443824,0.029876803684432574,16.84867827331847,25.1848085672272,0.12714148481772725,14.9672721817317,24.40742163769311,20.86387416324751,2.4605452468390236
20.469673786788647,-11.60491800024694,10.637734266683216,26.517766060190755,6.077578998363089,15.82416677721384,2.3796345870986,27.006853004477485,32.23364473914225,-3.5333519435661875,-0.47059417400224834,17.790557491927476,26.337963935794697,-12.414490591647741,15.496539068998478,21.86822095398624,16.7969432953845,-0.693290366881842
13.363368684238996,-16.266810057267236,22.90042998214715,20.456587236352526,2.2264613965346385,3.1278740451991514,11.071869980908897,22.837330991621343,28.83692135128412,-0.5796246888455006,-4.68133270221823,16.877611885336762,28.8597223235192,-24.27126628251642,11.34020201697505,23.334878356264493,6.873367227955416,-1.9919474795901753
3.522061260558236,0.3630126087784644,15.340798328423478,5.507758282747075,3.2600728935347405,2.639525300108671,-0.15526239952314214,22.282221206320877,27.19703880915514,0.2284308854259196,-10.64920588917266,7.9573666751847085,29.72266363993545,-32.22056021730624,9.334349639152887,21.19010393863699,0.8589179043065975,-0.8495122996572517
-3.390114946780038,-8.005178167595338,24.775770516686066,-0.457411848720815,-0.9780540990127093,-9.17637520001293,22.019355464503253,2.5872685023490547,17.64585660884541,3.3830840713105452,-12.612428362490997,4.506553236010908,20.62584841351361,-26.39902057843282,2.7406438094635233,17.484723023260006,-4.176140018660407,-1.1723261202419524
2.0019673144547125,-15.10141093443304,26.88853126154465,-12.18529745196126,7.77401481314631,-16.20628164819308,21.540170752657207,-10.36822749037774,5.4568674768649945,11.228132847778753,-13.891383924503955,-1.189826210448599,11.72564868868237,-13.935742103320418,-3.167352425297297,8.11712226714544,-5.106763019618626,1.434178681760555
0.5573748028937491,-7.937168212321474,15.819577040103256,-16.296841613621865,-13.843820328342932,19.148053671964394,-12.042206534543642,-1.44731836276042,-5.561302922567332,14.193129862892714,-18.294744378958736,1.8058594557732945,6.44005111874014,-23.053891064158435,-1.9441840031823379,10.3727323948952,-7.011158728395145,4.626186707015143
5.264570447690316,-25.38019385909157,34.83124654625765,-31.835355012776795,-19.541854286353182,10.65486308520822,4.085973674146164,-12.935806704152627,-11.50237209125849,18.23520741004235,-18.88882937663775,-4.963737819980125,-1.9693638859282458,-21.331176670857538,-5.015763175737851,10.579479501349212,-7.838520679952261,3.1301514418545917
-3.212695105028173,-8.152204228832815,28.356244436145083,-35.26537141016423,-9.12483534887023,17.20177989234473,-18.650874191446853,-7.33312119893432,-14.514838270382306,23.74500555729508,-20.361228871968326,-7.142964722738153,-6.275960287642793,-8.767677327256806,-11.796101027169918,8.932687795139747,-7.295882623871918,2.3172211805960043
-7.198387955211604,14.644828147694987,12.605713411973976,-48.755244653842425,6.4695057114107675,7.343026921970202,-4.66567616110515,-37.569757681649214,-25.048108408884794,25.54667214986263,-17.145469300431188,-12.056185489845298,-6.382118234196373,0.9644455674498449,-18.574161829406357,-4.431066713243634,-11.926320969840223,1.5037655053873507
-1.1260342002701904,-1.9116245315651845,3.107191105785283,-39.00372982166278,3.4126163830666476,-17.65183086573604,-6.986603596711134,-17.023301105473102,-37.92635177696152,28.230128018420448,-15.394005082319412,-13.843968606766065,-6.487159537571099,-8.932016357851793,-19.685755927739468,-3.144187361714316,-8.936680390360596,-2.2399728041677682
1.6252382933495753,3.800503034874832,-0.1393663500053144,-49.468563303502116,7.095445211283517,-10.125802728699536,-27.762146754942286,-15.519035902121223,-39.28219946728574,30.037539867592276,-12.665408650391653,-22.272120075111662,-16.552213719638782,-6.230085125976114,-18.744179863304222,-4.785061465583308,-5.260669838097073,-7.644466877212706
-2.948555432003765,5.999597317169631,10.776273385630688,-53.29390609539474,4.431791220049723,3.0652455965821,-41.89428784109072,-20.75208682612828,-24.23279531705277,22.765662552732238,-10.424561167930253,-27.574896892261236,-2.7877437068354745,-13.586431834642099,-22.29246327401477,-16.48269903511752,-5.87884419880802,-8.166670565475389
-8.304364506456725,7.908392181259154,7.82629361671316,-49.30790230908448,9.484305353151777,-41.26323168026819,-3.776885022239828,-34.67560848002951,-20.805942205704305,13.934146114207365,-5.351113639960965,-29.65467128602492,-1.815443999377342,-17.719678244269147,-23.103895344834616,-27.59240224092705,-6.298958266224004,-10.154358065072426
-2.0396737226458885,1.518979934170221,7.319491082349714,-39.366083423229426,10.045706687120914,-13.519402009471507,-25.52104812899956,-39.027603058109406,-17.673374322798416,8.230565179361308,2.945551629490107,-26.070028615322478,-4.162556634306938,-19.118186427606314,-17.07681387019869,-27.66478957736968,-5.251472927204183,-9.994212681252568
3.4429660966896645,6.069960922309334,-1.3888742652839738,-25.226320572948467,-0.4271364730104743,-4.23197978295455,-20.21141388181467,-30.878337775084123,-15.030439756990027,2.2369010280140227,11.242716868226251,-15.551445958397963,-14.419039061152517,-7.332650436305242,-12.21911736971477,-21.778061045712935,-6.935683153384453,-4.072916281525873
1.6004685376004284,-3.243706785209058,5.822612587617712,-14.701262162388998,-1.3285036912762394,8.962667560697527,-30.23146819617687,-20.091243647140576,-7.896626913761748,-8.929732041829777,16.903611672879787,-10.599140539582637,-7.779869731424245,-12.637040759317658,-7.261220025003609,-15.010417458171803,-10.7656552563701,-0.3007625928879869
-0.5358268992252331,14.008303804449358,1.9027104762775657,-15.017607527228897,-0.568734206804205,5.068135332589733,-38.49113445726849,9.349549571516622,-1.2525142222633114,-8.569860003196148,16.60786239878522,-6.427908318967612,-5.436823438507247,-13.351408859257308,-3.7656114878267894,-2.0883399743956153,-7.268601773097526,-2.584076482201704
1.1356871529760815,31.94671262733519,-21.449535920520248,-0.39373720651689226,-2.3471726142653697,7.522289995640424,-28.583941413897627,15.451214572176063,9.980066604999042,-18.265843767004473,19.437629352311358,0.0872744630533836,-10.124362780501844,-7.71798384557373,1.4904468171303948,8.394290348578647,-8.3587808816951,-2.6219637480966673
6.517335340375332,15.219437311638849,-24.487473955972725,13.74040454985182,-13.890552859725997,12.125856959828756,-17.990654800366556,23.604764789703196,5.195297691600855,-20.634606695138455,22.463171772972082,3.965840476543817,-14.713519248827247,-5.69792223641716,8.89761792613096,15.36323764853349,-1.3407007706655882,-1.0980406953237496
3.3042249326145634,11.190499859788284,-23.812967142153184,12.736138036773365,-8.440714654807167,-15.789653862855586,3.933387670544132,26.485870720212773,3.5340609002646266,-22.0239037349025,17.1882587031729,4.719479818572857,-16.079292286278875,-2.7990335372512596,7.225292687937165,17.841923008668505,-2.1325879908186813,-3.9694399741810207
-5.378613681968771,22.203702541781563,-32.90283132701379,5.675617022296436,-6.994131900821108,1.7066412652359677,-4.023412852776195,21.262458876816858,5.77758246103414,-23.507972566543504,6.4449580569049605,0.8833066037845092,-3.2840626908404627,-15.916170809539388,8.6807184380602,22.471070450757356,-4.093731600080128,-9.575988847389212
-4.687221085149439,12.321011963749287,-34.56935190152091,2.812890772615628,0.8008568941306438,5.3365006530310035,-12.661425697058188,17.6026464482358,14.660242932114228,-37.294033919631445,-0.0009616578894051653,-1.487917604814359,-2.402495302594941,-16.923967315677142,7.0138284447452595,23.391212471849144,-12.79063863143751,-11.374625879886262
-12.395322815219302,8.593635594597561,-36.13690691023574,0.14398110906538442,-4.880327603592031,-15.154132353789091,0.28527915389880043,22.44013380925672,18.170103649450564,-35.159004757851086,-13.9660914281853,-8.839620485122031,-1.5203945425596865,-22.42429964788318,3.4942007530300723,23.1414464431712,-16.699712030735633,-23.232755601891174
-15.514455980841177,8.384826380229553,-43.95329681390577,-0.2803076425974709,-19.838459708701883,-1.6588968050817368,14.699171395714957,7.3565192912096915,19.139202004033244,-34.876598285969955,-21.29006225508538,-14.335775520008768,-0.051863149825553734,-27.53433985813112,8.864212956256981,19.28032422482572,-17.774123301094765,-29.427485526958247
-14.630583249570947,11.108648297581984,-41.90504160526581,-0.4131358853043139,-30.010880971001605,24.435167303184173,12.122901212252842,1.8444409956534535,22.45038750172483,-29.903751040835214,-25.879185923758893,-12.507562979606048,2.686653446890833,-19.16800806493883,8.475228936728413,16.39775422139452,-10.252082876122078,-34.93936229590365
-12.38047947927708,7.975913651349973,-41.41814371473187,-3.574869765455139,-13.034023953629706,3.7521586072465976,9.5488773701963,1.8022742687269693,24.197312629512687,-24.928040300247698,-32.90932366937052,-15.757527967925073,1.3239295324082407,-18.90772032683558,11.507099867386167,8.145977219568529,-1.5555964959845792,-41.52622531994736
-8.080555981149121,4.7484365397362716,-25.793176094613337,-22.265700382661873,-7.189776710560473,-4.332012681740698,18.2077008886123,-11.61792446541291,26.72372486285552,-17.508028942320195,-34.274882870469455,-26.331808968670643,9.239025132314042,-21.284696831988022,4.190106658637302,2.923552071923247,4.213692886810652,-48.21149546484323
-9.543447050042658,6.797398628538147,-16.807860965857355,-26.79767247610574,-6.130438860384498,-5.383833957676547,12.317688205125183,-12.146223011998032,27.58814206077475,-5.495253707828079,-40.91352901470436,-27.530941201626845,13.248094620942336,-23.07628390196383,4.200321190855062,-5.714939534777955,6.762793816896029,-51.9677792229914
-6.808077843259317,5.431265548756205,-15.731794753945865,-21.17474851385844,-8.781826744108702,0.30372496263836,13.851789629861713,-21.46263977097782,23.665477587743084,2.516396588063307,-39.93443776440948,-24.53079197362143,15.499557274371067,-21.938745596445692,3.0415396093338476,-12.69130320985498,7.458896061100818,-49.47470803609419
-10.421498493314914,-1.4007721754747031,-12.11564468727877,-29.22540959821533,-13.190835745634109,-3.9688064489037487,6.501120299505392,-28.72716587739925,19.252632786822723,-4.215437832302196,-35.82986128941619,-32.37065861930532,15.309757639825298,-34.57160335038441,2.7645925947537706,-22.88843465663447,0.8331472249224805,-47.95894746080618
-9.836686789088901,-1.0032066757115992,-0.1976491309057975,-40.10963647813239,-24.43571719419002,2.9903041074225807,7.844030159180608,-34.232775061459435,19.134797476919932,-1.2763309981962503,-32.31078860364624,-36.694856948833575,10.72548941568939,-28.35721785316638,1.9046307624162448,-32.107060313992356,3.780317063620087,-45.36967594144929
-11.596724552357417,-4.118389113110009,9.768084563763999,-48.74921398240738,-23.18028599317121,-3.428691518373249,-2.5299927580079338,-26.748827958865437,17.64778310944709,1.079644587251137,-33.28352297717377,-40.140147803552864,6.7272456639209,-24.87799357779661,-3.63995569655194,-34.09709461799576,2.6283023375957106,-40.33967433577908
-9.549186879740706,1.070265947570034,2.351589218904585,-43.91348674534635,-23.682618219477988,-0.4715378123770195,7.4107450611884,-27.760028422055086,13.131368365660048,1.5829277657909357,-29.27525607548673,-35.479858514494424,4.389209698233589,-23.645683720520076,4.97879088161876,-30.225756252058254,-1.2557085312821679,-29.450909232995077
-5.54958303862697,-11.3165451073518,17.00654801979169,-51.970026819918644,-29.067806101098316,2.8772549117210766,7.392297971830472,-16.269963647888865,4.1206473520904625,1.4054001112441643,-23.411026862373447,-33.944627546984755,7.715296939755071,-33.74249799999326,11.549697971600507,-20.590713776800943,-6.406869688882367,-24.715268489999556
-11.121538038193723,3.350761153227337,20.431628158332995,-45.281673467985165,-22.734076851090855,-6.273133526982624,14.407065632403924,-3.020986723798531,6.826765149691741,3.0861507645179795,-12.858751006315849,-29.674987102430347,3.424002755992084,-25.675836768937835,11.482862626529558,-6.852160083053629,-3.743031845870231,-15.488042636949572
-9.077300745525324,4.641875183186138,24.638688667952366,-57.052035614277415,-24.408335478882574,-16.789719476274144,28.259684540319416,-7.642305480906192,2.1087649853484685,3.7930923408392365,-14.51320657578871,-28.237423258981142,0.2068140457426919,-33.33297172517675,16.790196207362687,-4.244714423672632,-9.670716172840162,-17.296795013208353
-6.350581293340407,3.5921151919652745,20.838490359695783,-45.581233114654054,-28.13349977920861,-5.5276174678553645,1.1954708780554828,28.363063920673582,-3.978612813362563,4.2098152596503535,-10.991303786138495,-16.74110751640055,1.5793575306976653,-47.04582047193999,22.97945046006693,18.384430032841195,-17.451559700110078,-12.17248261439686
-13.683741125637484,8.111750425606942,20.74991991518974,-31.96331042394816,-38.98781060700496,5.637839560352434,-0.08538856417174046,47.18173632499619,-4.794681263477173,-1.6208172519776802,-2.5860028008920484,-7.783879892359826,-8.864918954568305,-40.93511377596432,26.82792620804305,36.71848323666343,-17.808098477480375,-6.365180590575374
-13.791369708945114,11.462387849680363,15.388423566898847,-16.295895639368617,-38.611649596957335,2.155648995852873,13.674704273996772,51.54812492287443,-8.640387338743363,-7.448725334083209,5.722165656447125,7.130493084727238,-20.774346625073495,-28.18467651301861,29.507521027538473,48.218330706323506,-24.803068703823598,2.8595493215231222
-14.095464206000283,17.355011385501932,8.757927469459421,-4.829052350775747,-33.15748956688658,2.092493263738813,12.006483182553609,60.79845814562249,-20.008025793483068,-2.4339162458759542,11.198799800178051,18.431564537448672,-21.84410169028891,-22.368962608165567,29.260398732987884,56.69261059049926,-28.768375976254223,11.59542029448307
-14.986663931847193,0.39859717622170976,24.882195017216745,3.804461620458664,-32.97708457152835,-0.21577621733859864,14.832075139931973,58.52623091545468,-25.713839994802612,-1.9086725309529715,14.42986187134077,27.291240536547193,-29.35965537070081,-15.968352248398956,27.844400227533974,57.64905265809105,-29.21575371730499,17.20569727863772
-12.07037838113385,1.6093834671403826,31.143500866458215,1.3037741143889185,-30.355505161311115,2.4575135333675298,8.869974795252972,61.33325367909179,-28.88291542540461,1.4513180300019775,18.247442944515623,31.170434517823217,-29.453659486816342,-6.834399510058724,21.939162378229234,56.654133465053825,-23.117834363796266,19.495089801493542
-9.350582153980241,16.59275817329528,2.150793021261456,9.251283284524789,-24.80449309629438,7.182630402809812,6.8156350360702795,47.24652887410427,-38.89043238774006,7.060089733017656,20.112459147469302,30.362135832437048,-30.231757055021475,4.93521527091314,11.544683681455092,50.19215931935134,-11.841848927900186,19.928489966493757
-14.249270218953999,19.37174750158662,-4.8685317401117665,17.783596686308826,-1.6754162806806043,5.365693247861625,1.1493559487954048,26.03182382955019,-38.74398074147033,11.40194367502312,21.19682144763369,24.182757847726002,-32.18228699164821,24.12570047128805,2.813398745895583,36.11464452000065,-1.7355734546525539,20.459079494510775
