Fp1||F7,F7||T7,T7||P7,P7||O1,Fp2||F8,F8||T8,T8||P8,P8||O2,Fp1||F3,F3||C3,C3||P3,P3||O1,Fp2||F4,F4||C4,C4||P4,P4||O2,Fz||Cz,Cz||Pz
0.2421701008553292,0.05362320775566154,2.9649662277812747,5.726872396301472,1.1238622890450145,3.1517037593092825,2.782225643016755,21.02793235857503,-3.007303426819247,-1.1818938938745358,5.343784529779514,7.833044723776888,-6.290084779051192,14.389663524838179,5.7728616561633554,14.213283647826849,-0.2760017888130619,18.680798522541547
0.38988630932954216,-3.8693291721448464,11.139526311975812,12.29163981524438,8.15097962987262,2.876498513077867,1.1168992966795437,92.33885814514157,-2.149309130589037,-2.854007792550364,5.8892295656367795,19.065810622078363,-23.788855268645598,42.623328403055936,5.050702089066093,80.59806036113076,26.541983303228232,32.373890244742995
0.8298219932166555,0.21592559942599365,6.520448971664681,4.599858855073876,7.951925711128873,8.948242933240168,5.018035854890758,24.683855201097437,-5.197870842184612,-0.32767699313420096,10.341382422494043,7.350220832378801,-6.813260166570554,29.352993797458872,7.257505551383906,16.80482051792503,15.663383228060773,18.527120468699188
2.538496178411277,-7.319842806865434,11.66663970387872,9.214384923871357,8.339265829567804,9.647922014802818,4.622197785680884,70.31305083106037,-9.320973129463045,-2.196886034276883,7.664879884737366,19.952657278473264,-16.399477334748724,38.64202171376082,2.6274656896503865,68.05242639229374,29.10065548002815,28.11785835367457
-3.663976807771281,-6.261507010094499,7.827779897547524,5.724699509910753,3.258165757846212,5.073107149154023,6.863078633326588,31.176731026637256,-15.885883392092325,-12.661020952718903,15.633391970832038,16.54050796374843,-5.574224516796292,21.466109389860815,4.051372098278725,26.427825595469407,11.09102308964576,21.790063016431244
-11.625217098229886,-5.984235137845777,8.578262922292565,6.337968431917295,1.3024519025177934,-4.287999408244447,2.951475557795469,53.8593450275075,-21.57229745750777,-13.848818216495946,11.492626472730402,21.235268319586208,-14.670239556995089,16.20462986723966,3.2282850372439276,49.062597731940585,0.3067441266092885,24.837117126026246
-11.286534820440167,-3.9489512482645144,4.933544196448494,-1.1530783633780448,0.22594116658220287,2.6585877361930708,-1.3508112155112602,43.535406589803024,-17.200446650110845,-16.893362717119526,8.328681784711922,14.310107347064836,-9.8003781544809,10.259614287049363,5.138717742102907,39.47117040225264,-15.5572631818345,25.05183071829693
-12.99970733011969,-0.8392850338473128,6.171076593030454,-2.783437369372608,-3.8777314377727166,1.2053738859337102,0.4016225121581187,37.21737664882765,-15.758869165175234,-17.10718494750892,7.8993584590493375,14.515342513508154,-16.453402319508132,13.982661253367066,10.466243240881155,26.95113943426791,-22.633805553781933,23.60612381322961
-8.756856316993744,-7.495271354693152,3.7946043580621627,4.18125404799313,-5.051499412727237,2.680570557233695,-6.928179830538349,57.952657153736766,-7.286534082475647,-25.623368711593336,4.345153376401752,20.288480152219957,-21.15263600248909,13.40859068808312,8.95676806752903,47.44082571444736,-23.16921594548939,26.066514332516608
-10.667597362712437,-10.34251021370217,0.7338274430339431,-4.86880943158717,-9.350198526031814,0.8339962096700759,-5.0782278785681,16.28693113919614,-10.240812640737516,-30.43011271715769,6.943513245307165,8.582322547806312,-15.108974887851158,5.607545846376562,10.571351410482144,1.6225785751286352,-40.50389811364082,21.788334945935844
-13.556125413307377,-12.701390820709465,4.410701987085444,1.9027399974631782,-9.058923375144106,-5.799301195014295,-3.4236719094463863,66.42194089307138,-16.02788180327029,-30.062650836399307,2.2176314770731747,23.92882691331601,-24.104154831737688,10.01329126075499,1.442564356036696,60.78834362828675,-33.035857372631064,31.475052540023025
-9.902848968469698,-4.024903435603356,0.4695082525303298,-8.61012768498412,-7.400435604379966,4.362953280325811,4.187918305214982,-1.6062867774056135,-14.686709881626069,-26.76721021414755,10.96856847698696,8.416979782449221,-10.247065241371834,-2.280991029161914,14.090405096076033,-2.018199621908682,-56.43020679082973,29.833338054599142
-8.204045178096587,-2.868045018145267,1.8010362080693372,4.901754894155552,-5.546684430077127,-5.203320439879038,6.23292185880615,78.61272872855619,-14.81123549369382,-17.418841358839533,3.996621955839217,23.864155802868048,-28.12847552017098,17.553441134855927,7.107963126685914,77.5627169759179,-33.14690029593746,46.160538858071504
-1.721382950677072,1.2185361641117904,-0.3839422467724738,-17.230548747880704,-6.134485250954587,11.107957462618783,5.641063221439751,-7.378773030723089,-9.858447188474427,-8.853683274166508,6.595108931148262,-6.000316249533549,-10.5599531702265,5.452981372390617,17.99578261694163,-9.653048416838201,-45.70692615364406,31.530152197332363
-0.22068845331690867,-1.9215914465464263,2.899053768837379,1.9472028477898968,-5.648215884250522,-6.76280752003914,2.900623202393224,81.92848523445768,-11.059041848614777,-0.6812011296385798,-2.134764302000926,16.57898399721171,-32.054446658155854,25.480977522481318,1.8312757530163948,77.16027841511011,-9.441219613116942,39.94693320141787
-0.2839920658987114,1.9695755135189923,-7.1002927530279445,-7.585648242842586,-7.115322752172798,0.8531800859482077,11.976650600149485,-14.017715902585039,-9.23324827474591,-3.9368145658732434,4.272212937281726,-4.102507644718225,-16.8296423753861,18.35905088364612,14.084012333902377,-23.916628810927875,-22.886634384603642,21.31248584112172
4.53406668731531,-1.9519662595463712,-0.49874388573603445,5.92944157302303,1.280724238794473,-3.642392784993966,5.036681292401448,66.11641631079796,-7.50617011320136,1.5945348050588515,-0.746901090976217,14.671334514370226,-30.804607633349445,36.333961348476606,2.897706554123733,60.36436878764756,15.911318499761883,29.33859174643483
4.662979853233671,0.8647596132544415,0.14473222276393916,-10.242766460143175,3.719314766607045,0.16085915045549282,7.862350361685796,-16.24835193658702,-6.073178377819384,2.6313017454368075,5.4644534343843,-6.5928715726964615,-10.990192723599531,23.545349936131828,9.67921530906528,-26.74020017953391,5.583715340724459,9.043967733324864
0.7863031901520823,-2.8617265204716005,2.642725021915792,11.379166649273884,8.501300395624012,-8.342928909087826,0.6291281258006611,54.810916911082785,-7.082798442333406,4.544570683510199,-0.14098546229933362,14.625681562189769,-19.301497528563885,33.50952619154649,-3.853319529042821,45.24370738938596,32.264495934492615,10.527059042658102
5.30652231325838,-3.0727045047103796,-1.8916491544333045,2.337105291493454,4.20066928259584,-9.426974247347767,2.2826076307342915,-6.842810639259287,1.867448055950618,-2.236206836713098,1.3823491486261332,1.6656835779421204,-1.245595632916257,12.80757389373932,-3.4220541713231256,-17.926432062867015,8.842771627224238,-5.275205716337421
-1.0149838829077769,-6.018296864617638,4.998893748493321,9.604362408555726,6.051972771653139,-20.181461274257074,-2.802458179539671,45.278743499673055,3.492086944768425,-2.9648005617365074,-7.1533389510993555,14.196027977789123,-4.186583532222098,13.68625145994135,-16.078204578517038,34.925333468240794,15.885996269782678,-9.260795119629794
-7.045278191557014,-2.909334215622402,-1.1001096193791464,8.082838464208873,0.7737022459998504,-16.875638051326966,1.2921336256745677,13.809425307797804,11.756121374287238,-12.778247247484694,-9.243924870348026,7.294167181394139,16.50503354172711,1.379270778714229,-18.1886184578364,-0.6960627345424548,-2.661551921425221,-25.06285713623273
-11.3195385055788,-5.464772668379623,8.7180040581248,7.049958232990047,-0.6965311658298727,-16.502029245870716,8.706909862989106,31.07560826320109,18.163274751574196,-17.027971376639083,-14.069268555418088,11.917616297837917,19.324623605459102,5.965083256904547,-16.49169951581113,13.785950367857911,-4.221274233255763,-29.048193142584097
-16.27925110476024,-3.3329191235342965,8.280933244077797,7.0916074382740195,1.7388747323000957,-16.716925887177773,11.726900238519084,27.154482776685157,18.02592284999326,-19.91333969125256,-12.84020489156185,10.487992187076987,24.682561972690923,-0.8771881020124717,-14.405487050619488,14.503445040191973,-15.160933395474725,-27.466872551440765
-15.67436213467429,-3.74047376434416,0.3230681034131613,6.938174602939288,-5.494561227318291,-11.172650513520997,14.551378723451405,11.030690027935872,15.738611791098453,-18.504702261677068,-16.20145812177497,6.813955399886103,26.231003209017917,-8.112350683923715,-12.711260076630026,3.5074645620116893,-25.714925052406823,-35.1628453852371
-13.215905932340041,-9.226565302202584,2.325118219411695,9.324015500283984,-10.580307488043056,-12.955414754257468,19.719437692311708,40.32242250436743,14.426337607527227,-17.001422496045024,-19.953775006300173,11.735522380169437,17.915075155088093,-4.99818462486612,-18.049760663512885,41.63900808760086,-28.461427240174952,-28.698226938766716
-12.028969053320568,-4.849587016615988,3.7400224505876083,-7.43094918223125,-18.010674775962883,-6.537711133549449,20.004395511490117,-6.944714716241556,12.721840839591733,-13.841055394998094,-17.358800031476694,-2.0914682144988976,22.391281316509584,-16.82817556651522,-10.498824160484727,-6.552986703838663,-46.740802632950775,-37.95625796519393
-11.820615772916167,-2.621468517680892,6.2279379064412215,0.6192026105301762,-10.402639674637939,-12.03710603662584,13.062457583364093,51.5563984143614,16.777508597000896,-11.465121522502695,-22.381617517681637,9.474286669755795,17.49122255373836,-12.059003649913969,-18.672181316646075,55.41907269922149,-32.017313528015364,-31.68643317592616
-13.567459581033443,4.684435339102677,2.6598258568518722,-14.280225016084717,-8.069066080971417,-0.1563480061709437,10.221912985781122,-20.994142037061508,17.413463394289952,-10.069011597448155,-20.47125054816305,-7.376624649644608,36.125465263345546,-23.699114375798793,-15.420991769448708,-16.0030022565794,-53.43279533310156,-41.33451568645808
-14.242145185699773,-2.951739854697964,6.024142853230545,-2.6168186917313143,-7.591986631641644,-9.372655868334455,0.3497706512633334,50.11499953904742,14.53199821671597,-11.312980582505359,-27.25296275555431,10.247384242642635,15.597648367738717,-10.341754257447985,-28.870694542666147,57.11492812265465,-35.4979664393348,-28.423325865025234
-15.797860579640735,6.306401450163998,-4.382574047028353,-15.856268217810669,-13.366052744210162,-2.966787130498675,3.563516476875288,-24.86658255000416,11.453427626762808,-11.583763580819765,-20.656128892991816,-8.943836547069903,27.295488150794327,-26.87070045717983,-16.735496451442035,-21.325197190062468,-58.38997904304799,-32.3089021275456
-15.011932042571276,-0.06119600645387702,-1.3138364827009292,-4.779133137134278,-11.816891198914194,-10.529103404918393,-1.8168762642141951,54.84705733142787,5.247971528310236,-10.783772417254097,-23.825656184498925,8.195359404779094,4.420998785025359,-12.933595523089807,-24.621568835328222,63.81835203672456,-34.705299190477845,-20.959473977812845
-8.466368868107855,3.9223987990727154,-14.359959915577528,-17.237766473405895,-11.92906627691789,0.7533311305729544,4.521394152878454,-25.59253229622429,5.193068093778862,-14.284250412345994,-14.300285973369071,-12.750228165886167,22.268206569318448,-25.95331524182071,-11.024377201986628,-17.537387415248,-53.800898421553896,-29.238822023508916
-12.372384594899874,-1.3720478149729807,-5.14147169114838,-5.477593397679171,-9.796320072920018,-5.545883939605424,-5.6447671670013975,47.003120655133955,-5.215487106684879,-9.096783762100875,-17.2757355371713,7.224508907452311,7.691373059227319,-15.733904283680687,-20.08522350991945,54.14390420993683,-30.61702015474946,-14.0798493360125
-11.104767939294836,6.028427707731823,-3.2486852710710643,-19.304121185741664,-3.7585222021900937,1.5306932193550624,-4.0922810526056885,-17.507033552030975,-5.567271891419265,-6.745049435162406,-4.235963810431059,-11.080861551167965,20.066313493367616,-26.22146721941688,-10.6902009067603,-6.981788954702264,-42.79169858040025,-18.158953914516974
-10.815982120032421,3.076570658212849,-4.287019488845434,-4.61502127682765,-2.7025777001935043,-2.0408016682997823,-7.032339792659952,30.099650904313044,-4.260896535542183,-3.0298262142354844,-12.974534005830476,3.623804528309856,-0.6665727147654197,-12.102932433745583,-16.238256581495136,47.33169347312875,-24.796716489094138,-10.030308075075453
-11.603708909603494,8.034350345304516,-7.768201685741506,-3.8914697463724086,-8.48403378726529,5.224275646520196,-0.8905245938054343,-6.371136131399446,-5.300372078918442,-5.373161915638542,-6.088548146526445,1.533052144864162,1.5481672910643431,-14.980615234558261,-7.920355558521215,10.831384636030883,-32.29710777941758,-12.838759954148312
-8.487426029010754,9.378125275694815,-4.024130495421142,-0.14107853408674284,-9.579326750641357,5.063870828870682,-2.756946690895168,17.711805091020572,-9.955291864583295,-2.349158448182843,-1.7423611079463965,10.772301638081524,-8.641657930092906,-11.319116359570291,-9.174352131941419,39.57452889992795,-23.20250402622655,-5.2948850117654125
-4.885175282679127,5.447685652560811,-10.926186100508515,-4.30157283989427,-4.133008609549731,4.606943664948666,-2.8658383704535773,1.565770201453205,-10.217762906678258,-9.7784251420604,-3.3540077155438697,8.684947193953356,-7.2123332857401845,-13.814056146932042,-7.890681475014034,28.090937794056256,-31.790885114754243,-4.684065156304362
-8.609595210692433,9.329140386220859,-11.091303288968309,-5.435343625805794,-0.7390090300494139,2.19325904667716,-3.5609912520631744,-6.566236840367836,-7.650349695947972,-9.496675666173383,-9.653949978251037,10.993873601317688,-5.492245028487128,-19.63347217127802,-7.194384508957942,23.647123632894075,-34.81981748318383,-9.932026252500044
-12.824661761551077,8.717585902410296,-10.378957764538862,-1.4916357330571137,-1.9364772366827392,-4.521020562742322,-6.99088099748737,14.995879516238237,-12.800127719387028,-5.41027085346583,-15.466339009874009,17.699068226180074,-13.540228148825763,-22.2344057132371,-15.386360667256671,52.70849524862239,-28.187780110930866,-13.90971338968219
-10.596691574480394,6.347410566820548,-12.011864979142008,-7.900428988459163,-3.037889126972712,-0.10602220786468575,-4.171000382456731,-23.00698103543585,-11.213789854422165,-9.140530887677524,-13.9551430539181,10.14788882094567,-9.969324618570187,-22.495884051382,-8.052164722327106,10.195480639529126,-41.973456485920956,-12.222487506738904
-11.886788767177793,0.36308892595579134,-3.489842925700067,-0.05202923758874367,-2.187794502545513,-0.8706366564097117,-3.206946165041301,30.794749872411053,-13.047778324154905,-6.820103645003013,-15.374433593899159,20.17674355873403,-15.971350364326026,-11.238184897465555,-10.485139465360238,62.22404727554884,-26.371494115288456,5.383755725620205
-7.124507869863029,1.5069439818940036,-2.6842654573117306,-9.880573318004089,-5.831650514234848,3.634467978809427,4.202185812741069,-30.242637736961733,-10.587167704050753,-7.433546053394554,-2.8294290767586263,2.6677401711056596,-1.956095645188472,-21.76270051552219,0.7525863487625699,-5.271424647712919,-45.93374966173612,4.826507456935957
-4.2201373460929315,-4.283767269447703,1.049555040995445,13.00527744142006,0.9721313422376969,-1.0440982588246825,-2.3540752892756514,46.228521849164544,-6.664067271960879,-0.14089164408286337,-6.5940351676747015,18.949921950778634,-10.307104360136524,-3.580479650883323,-9.398100677946207,67.08816433225553,-16.576994757252187,22.434490302284537
-2.392425245843212,5.452206980905172,-7.522993581807794,-0.7315271042914584,-0.6244379507127151,3.160304066683975,-0.023820797538106397,-39.405655851681075,0.28401326107557967,-1.6416545125910798,-1.570217615805209,-2.266880083532561,2.140260840888874,-11.672927851511247,-0.31156364436639983,-27.049379878269157,-30.978506160889058,6.839777039749604
-3.69219255382397,-2.293477843636485,3.239193183232957,7.8942340588263065,-0.8556289828713712,-4.162833262050963,-5.40886839298133,49.28580330565778,-6.442431935454058,2.615130250093312,-7.87547461056976,16.850533140712,-19.986021561569693,8.257563162122764,-5.386730992922903,55.973662060116254,-2.6136029746788267,18.10192273749191
-4.017821109780696,2.948364796140349,-4.750405198715955,-9.555731568731527,-4.018426356322033,0.5219665965250702,1.1199865258553874,-34.38202166706494,-5.358730986787173,2.4730214626061517,-2.755555190870382,-9.73432836585513,-0.8059693680344608,-7.071314782870314,5.455001595185511,-34.33621234529272,-18.20243083268991,0.9466921378383284
-2.4903966757468137,-4.408621362358684,-11.471952442987245,13.130471099278227,0.23884691571404915,-9.250580435544732,-3.386825420271663,45.92417994677059,-9.941681653457636,7.697759101232705,-8.085794425020115,5.089217595610384,-17.762251384577517,10.017162403095607,-4.993942857386798,46.26465284553366,3.7014975920011537,13.382829311587278
-0.6724470296001464,2.2960984429166436,-8.23390866327299,-8.032866497788334,-6.345849472611505,0.7973579965712982,5.680446585414103,-30.405901839546438,-3.5894963764743992,5.984436045139038,-1.5025699009718227,-15.535493515259276,0.43520286492886573,-3.271019218485457,0.4740583055097307,-27.91218868212681,-18.934382959847536,4.530698833753447
2.412602766691071,4.019236651863518,-4.704387641837479,-5.466639514179773,1.3254813621459327,-5.662929772026315,5.079261468357437,32.335418252788855,4.713285864592676,11.688710411427337,-13.084464481511393,-7.05671953179446,-8.031034865662193,13.221224107454127,-12.809467366558472,40.69650943603348,2.465438643526632,8.66821543313768
0.8076295578291823,6.913202735556965,-3.3248288948682854,-22.335619686536766,4.502511547815619,-2.2638841029488157,6.821523149282869,-31.578525266838014,4.224288165398456,10.454866903452682,-10.79973714034638,-21.81903421634844,5.960801096717738,-1.9329074162610986,-9.297075541085617,-17.24919281205615,-13.643305459245383,-2.6229745824823407
-1.6787143569723764,3.5559803739879854,-4.2905424028503205,-19.283787575761572,9.337637513142806,-7.16987269428829,-0.22574802977873487,5.687818102055388,-2.9080432630127895,7.947029148864656,-15.156509905635701,-11.579539941638881,-9.836256684323738,6.150157901918096,-17.211824586688135,28.527758260230364,-8.861337223128675,1.2240508835546091
1.3013259899085678,0.3929524486871274,-12.09377718445607,-24.924910099837135,9.385407773454656,-1.6306352729179885,-3.46470000887025,-25.399348395408566,-5.550748680371598,2.797965691876069,-17.756212606766006,-14.815413250264086,-5.030889572176246,-2.9599595749904113,-13.213484484474112,0.09505772790627276,-26.54873958344934,-2.1542804844599956
5.93910200074205,-3.259513072635372,-14.917938113028695,-21.68064229384384,9.723984744895306,-5.568374430954405,-7.289926617319134,-14.682056347686633,-8.293763052792501,-0.8907192563074062,-21.528571836824845,-3.2059373326709206,-9.897071066166063,-8.657548785806235,-9.997529750443247,10.735776951360595,-37.21291713301993,1.1094813304743136
5.6915497474713455,1.192437222377606,-15.692747268087718,-20.2933830226405,7.814227678728653,-4.334450491533438,-7.50213962655944,-8.352381860025158,-7.621427439749814,0.006003347468288567,-17.391411087951255,-4.095308140478011,-4.4150372446600255,-10.06375900141935,-15.474204078138717,17.578256024840915,-31.967053483978244,0.6636675304741835
12.27760408653009,2.908766605277309,-19.00810674635309,-22.813991459743967,4.046728599742663,-5.936817201038392,-4.784936859131407,-28.67625722434803,-2.9478136116422378,4.7068551890832,-17.2589669505817,-11.135802140982172,-2.452258735430119,-15.479563825776324,-11.381475271819308,-6.037984851734912,-28.194260249992134,-9.058160677696698
12.025188802761534,0.03395060260233451,-17.1490418145105,-22.211156123094042,5.159833216370409,-13.695854462087372,-8.122823064546122,9.796870150386201,0.7465169832393608,-1.1438656612860836,-21.42420394343115,-5.479505910597808,-9.184665987205268,-10.15870688753192,-21.450137889807753,33.93153660468487,-20.035102856426544,-11.356476599690767
2.785842369494107,7.216623002065589,-13.826531759047759,-31.278085957281398,3.63385775823453,-5.736242877484743,-10.679748077398823,-44.00949622402548,0.4341592249814603,-3.4834564738955285,-15.238451389214411,-16.814403706477734,5.954544775459416,-21.347756712247506,-18.238329181432366,-23.16008830243492,-39.61900367463112,-21.368176093129556
-0.8894218345842937,7.171336759544878,-2.6928070554221293,-12.807226140343023,7.281384246336266,-7.351349167817491,-12.943991204241028,22.603226742684,-9.54904944966733,0.22717443952041094,-6.123686971719177,6.227443711223033,-4.984644384591947,-6.956282906557291,-15.418093551004429,36.94829145913687,-25.128635167912197,4.0715165763590795
3.733824345267532,7.905999737025072,-4.744263844256957,-17.971275871704204,4.774078233259618,1.7716269839685612,-7.591211477838378,-47.88839904540001,-5.862921227973761,-4.953614407005642,6.799020399270361,-7.058200397799752,8.19377881911711,-17.961677954571368,1.659270644505849,-40.82527681503808,-45.21740681048972,5.586750720026505
5.522611289295737,2.2915703027794927,-2.597804823416607,-5.754026871471263,7.049570632384751,-7.2740127203469145,-14.934207305496018,30.848140749860093,-3.742074083616833,-1.4474347071584805,-0.5917788502136663,5.2436375383343545,-8.905611606777098,-7.68359067525474,-8.901365125018634,41.18005876347828,-17.65751583401102,15.40463661378345
7.406685276032395,8.297046287597997,-10.804412155151251,-15.120959265376914,0.9240311634648384,7.113924236762507,-10.656188746571264,-51.54343416531459,-1.7216508454109194,-3.8052923193095616,6.860714729335809,-11.555411421356851,4.362577661624746,-15.380477635005384,2.1195434847311265,-45.263311022981014,-26.434629552003088,-1.43623997633163
6.261014007522949,1.410308829065316,-6.707467456135929,7.44432747711906,4.366449283939464,-1.3543332965244383,-10.870669156134205,34.62942241526203,-8.00490902324612,0.9612919727273486,1.226401164618144,14.225398743626476,-13.81906472741944,7.874147565661659,-4.438712726658794,37.15449913498944,9.995457791568633,9.654855120868612
5.308319601879029,10.245049989091612,-18.04174471165068,2.565887005195151,5.267231135634805,5.407733483476623,-2.7844696715855637,-44.32977442429715,-6.673642709518413,-0.7221055633653943,6.919729851889377,0.5535303056621617,7.448920206030101,-5.49890899550186,4.529885979295388,-42.91917666656295,1.6899636975319154,-12.358107556430108
-1.1155288721766725,5.89455319935093,-16.29115805532166,11.455246003323124,11.731935730957238,-6.877739566857,-12.569848596718794,28.28303737548772,-12.083543826998024,-0.8475457064912515,-2.719847301099083,15.59404910991481,-7.713590479911799,1.0441501815510215,-3.8852718019226717,31.1220970431864,22.771112419946633,-12.591419239208589
0.6615715022105233,7.792683595833163,-21.768490172318216,3.057204118536804,4.424297780845706,-3.737565017502198,-11.906044078452862,-33.278681384142324,-7.046852612803997,-3.4189888766865453,1.3120340464078666,-1.1032235125062444,4.366192461437414,-18.102869841474647,-1.7540242229561436,-29.00729109622275,8.980113646788318,-29.326854570371403
-2.934784558015388,5.0017494923859145,-16.407030372285064,16.825450017420398,10.395479256816088,-14.078426252414587,-15.637014237266248,18.05915796043614,-8.751332205711382,-1.8933571500278665,-3.250574833590548,16.380648768982496,-4.652368109564369,-15.087702902674524,-12.221206429388234,30.70047416923576,26.52892099441099,-28.28648659624144
-2.431774365802956,10.021917224206202,-17.980457115530335,9.98585578446708,1.7153351455064767,-10.458488039753584,-11.16489104061044,-12.725947865751365,-4.20850240983837,-5.450466343288766,-0.39178808001412335,9.646298360626076,1.7546684235746568,-25.45778909242908,-6.770707979828872,-2.1601631518867137,22.096417147100674,-38.66991879063751
-3.2005504394557556,7.81387082387673,-15.453414065736613,12.128679539402302,4.556109204068736,-14.362440383520072,-13.235972517242953,9.13368398555465,-1.9145842253792287,-8.52381107844709,-3.197725988096872,14.924707150152624,-2.2920516735941936,-22.552584170024083,-6.984838117797716,17.92085425031686,32.597239574139934,-40.75022617095154
-1.8230673909829171,4.725339861039562,-11.07199611835087,5.67549148706588,2.9019022049310657,-15.145574192413532,-13.842302065264874,7.17204212040532,-3.4320974669709825,-7.793011555481858,-2.000255045517589,10.731131906882748,-4.878335081872043,-23.364549841630193,-5.636871788220715,14.965824779422956,32.73804807651072,-42.53528132975099
-7.869757979553158,0.4633280542705771,-17.629332708889642,3.12644634948553,0.3660214664446597,-17.007154273371345,-21.675395470377474,-9.62636455163284,-7.198512628997688,-13.121480437744863,-6.760447202930893,5.171123985125262,-4.441707295035817,-24.573333941409643,-14.348026875545791,-4.579824716902287,27.59706234755594,-53.49782236790566
-12.356083049831218,-5.460475846619936,-18.621229871859207,6.922952153119049,1.9289834704580602,-21.41202609634044,-29.508555704754926,17.919048996731497,-10.577063429304884,-18.161443061627132,-13.181344096638028,12.405013972515032,-0.6892427655821125,-26.374259002463287,-24.231394979883728,20.22234741406811,22.350162445213638,-45.41469913826346
-9.324892106889317,-4.940501414113309,-22.153242836312348,1.2444200430806305,0.26643026697946715,-19.37565431648376,-21.618861186544386,-27.47867094689625,-4.680886583689158,-23.010533142446935,-11.008865012217761,3.526068424253546,9.406402461668009,-37.06823602567525,-17.1225815872911,-23.422341031600602,1.9580787647448474,-51.00119083498402
-10.104453382268343,-7.254255385879189,-15.139195943242775,9.138042251461124,1.823746115737281,-22.71459961563108,-22.127747162078087,29.67142453779593,0.43128123506987315,-23.664756836099166,-14.305706380981487,14.179319522213296,-0.7177212161299185,-25.50244502003247,-21.049302526055655,33.92229263808917,18.570069390176684,-39.104414155477855
-14.792393721251296,-1.9523803786051621,-11.641764060778575,-7.482733816755638,-6.192258656012187,-12.873862870731605,-18.43733745556834,-37.78258051980689,-0.22109253323896105,-21.686609013288827,-10.181028262674252,-3.780542168059359,7.70846647549876,-37.38070350211376,-10.815804566631362,-34.79799790882457,-1.9360631894082267,-48.689742840753496
-14.794799836602756,-8.664102326442084,-1.8951322820466103,6.265708344388418,-5.226638236732457,-22.66641365561774,-23.14545174077361,42.72205190671815,-8.00520244397949,-10.142358684513034,-17.092125266546482,16.151360294462762,-12.776736986206807,-26.706207017166207,-13.375567096827478,44.542059373843884,15.14788182557302,-29.85400680935294
-12.260108608882346,0.34535748034526104,0.7216310144449825,-6.648784479967571,-11.49060138007315,-18.204982422896666,-16.03690792692155,-36.14360338953878,-8.56534527674478,-4.5595526336043495,-3.007240375883738,-1.7097663077025747,-3.3834110860799544,-40.74528896971242,-1.482023179651236,-36.26537188393664,-0.589294336338952,-36.99250224163788
-14.610273654171174,-1.5845827991421784,6.072000675020648,11.196506406124143,-6.136227181889598,-27.61496202087626,-21.428452381613525,55.70359598680514,-17.52674242740771,2.2885182532003725,-2.0089067373373872,18.32078153949779,-19.19055852264261,-28.32527674559904,-10.291901351163194,58.3316910218813,29.6622386990862,-18.541877159341947
-13.3490357324238,-2.8326701353763277,-2.9340837172387655,2.1834822729965495,-7.1325618001189,-14.177003271390719,-16.468141977739357,-30.081530592077712,-14.57656532287182,-6.688211775606331,3.9695755814929203,0.36289420506186065,10.798962333442377,-43.93916862404079,-4.062410405257149,-30.656620945419704,5.412702564791619,-33.48734141982848
-14.72645317255958,-9.063070738780677,-0.41727595986695043,23.73486272284872,-0.4169116361991514,-23.301913901513256,-19.417941220542772,53.67425924327437,-9.871198726202426,-6.977608760411976,-2.650168859880621,19.02703919825283,-3.7482917704129903,-20.30075702348437,-15.606492388011466,50.1930336669801,31.448890761886943,-17.57003693696594
-12.297076917942695,-5.529482338125446,-9.717729978704188,18.134892173982355,-4.93489824838876,-16.707815815100364,-9.67203311953525,-18.034019775955617,-6.633326276926486,-10.200900199231832,6.257306593219976,1.1675228222619323,7.090589326185242,-26.16106250490776,-2.4429714508437215,-27.835322329361055,11.480311887762749,-20.30237311751861
-7.818706943592609,-10.591575749526264,-0.756814998674292,28.64591878190784,3.3372634942570363,-21.44585657645487,-11.742475757415232,45.227723185824,-2.3238233889278668,-11.670468612434956,5.593979862422703,17.879133229165586,-7.857080126213772,-5.366852164488012,-5.97867035628934,34.57925699325538,31.25050415060673,0.6015160063481169
-7.346082680972277,-5.2061064704088365,-4.687302524099369,19.42752162063198,1.547644501392583,-17.10551958601541,-7.757867178582616,-8.497512002693014,-2.2161831481826884,-18.222307503223025,18.79772529391087,3.828795302754311,-1.129666457167561,-15.53615658252283,2.6931611200819567,-17.840592346236058,16.637287097365263,-2.0269940499074544
-16.25033830377427,-5.486615578472785,-1.5869652371765408,24.952853096938522,1.1221835337072754,-19.507307419662936,-4.456555180167552,27.824650962436493,-7.579929775900165,-19.01635707923731,14.129793564960345,14.095427267797183,0.026294694521796558,-24.051250727415752,2.2831947758170212,26.724733153444852,13.539844810403512,8.14083943043451
-12.851412925562745,-2.448604043400541,-5.909099678500897,17.975374289432956,-4.970492455094079,-17.12755304281402,-0.08066346297262328,6.047385304385534,-3.1804279117221723,-16.20103468215003,12.879587693755123,3.2681325421880985,-0.09228033105439692,-30.52146014752666,8.709701322703253,5.77271549943794,0.18054932383697775,10.88992687258349
-9.551795964165022,-5.760200287842608,-7.204278042589457,14.315610129259484,-0.7145287421867184,-16.5092690235756,-7.423318363909611,6.25000077983889,-2.7873895403071316,-20.616294250998322,9.18765832405818,6.015361302008994,-0.41117868763194654,-32.11466328351207,11.230388252911638,2.898338368455409,-3.6160281941070807,8.661773529286378
-0.980267167952853,-4.87437959206795,-13.08975389968084,16.610291096464564,1.292212647951831,-16.773477409069468,-6.074013988917984,16.71352927153752,2.2907550390567177,-19.957203070189014,7.350960399865388,7.981378068126212,-4.153126147808961,-20.43224385044752,5.646031404022333,14.097589115792905,1.271244319697562,11.515187367048767
0.7536591516208109,-5.455301146678101,-5.401136935330991,7.183338210307274,4.760713424215995,-17.82245995350719,-6.677405286112964,-9.437785901156278,3.069525991845879,-12.954150855375556,5.806983726893712,1.1582004166483877,5.186016987461706,-25.25975849240716,4.456879852733557,-13.56007606429084,-5.372731844425623,6.852379492519798
-0.1506878360480659,-7.991262944156365,-1.7167693014664636,15.527361489185118,3.1478937278025327,-20.632731398777306,-10.30768821091401,37.56331168255383,0.7208498640067944,-4.880593748343754,4.262767949130522,5.565617342811115,-1.105141287264975,-15.639646100096748,-6.595038526033981,33.11061171411937,12.194831448550183,13.521352060935989
-3.3026299942846276,-2.7164992747559977,-2.7202037468256197,2.188606952525404,-2.2767059251471684,-12.215747557019982,-4.562290184764919,-15.918685486778987,-2.899741235297438,-5.306926338690616,12.777072329874123,-11.12113081913946,6.075391180727216,-22.236376288577006,0.8110783615906207,-19.62352240739233,0.06691860169359742,8.572593045635283
-1.2801311090058327,-11.115720269875267,3.600513490446316,20.195201099914186,0.20583435763107882,-16.399930250629467,-4.187490058728709,55.90087023820374,-11.796178246578346,-1.9282073542347185,18.65440179433819,6.4698470180387035,-12.237836320352194,1.1422260311103045,-3.30563881235,49.92053338812908,25.92040217717556,26.284024614746045
0.15505085703306065,-3.500979210547554,3.5733507408618905,6.753191226881234,0.7320750967814424,-7.403567360873719,4.000547257494722,-19.540823395974783,-11.808051109637924,-1.6780683088930601,30.586305424004543,-10.119572391163537,1.1826015632433649,-2.828865477068735,8.49669118949911,-29.06219567818453,12.703385509470056,17.924488170257053
1.4912540060892017,-5.458609265864199,8.03836926745508,18.894672414315167,5.942736113438068,-14.133279371056656,3.888335005748722,59.03031048312565,-18.951190157079154,5.111677077798987,28.259982499477836,8.545217001875915,-16.750203620770815,19.75749189582268,0.9636797214428299,50.75713423482358,42.448432251458264,34.6666915098566
8.978623758768025,-4.000135207988294,-2.731242239651121,1.4429969954668316,0.11491597205381021,-0.7486032544617736,6.999527011478143,-26.457041096597663,-14.865899909271917,1.936942648865415,29.546807674808246,-12.927607107731033,3.1054218838480594,5.912128842751343,7.0060399634103465,-36.114792057473856,18.572100951973457,18.990275776321994
3.085662743350488,-11.723408673132429,2.1244143257584245,18.55927646476142,2.389527720203794,-6.0195877326936795,1.0292885619329013,50.271576495108434,-15.17737720109918,-1.338766046450381,21.165335443141245,7.396752665218397,-14.05635505660989,23.604908417131533,-4.724308784146199,42.846560468240305,44.39634581666869,28.12272478627453
3.1486547225006944,-6.850755707307762,-0.8324664888304181,3.1526203235985637,-2.1750656305265115,2.0855817090089843,8.634255901919396,-27.29262948549613,-10.022147470198679,-4.422400174567379,26.16279854286777,-13.10019804807158,1.3944321770053243,12.874056830698052,7.57019919903259,-40.58654571176497,21.286916025297955,18.508732440229874
1.3550322150992056,-11.062195649441865,0.019438467106434487,16.259093933608142,-2.152909939269352,-6.902232551109208,5.790665410870712,40.17125581040025,-11.216753280127213,-7.899828795824145,17.780981131192448,7.906969911196713,-13.531458805866446,22.64618319912976,0.04129051174927767,27.750763825946,34.79206023605634,27.551257022977726
3.4666540907498877,-13.615377037690308,-7.527036421771635,11.49124934846667,-3.9894161993329607,-5.541126764271549,8.12379581986183,-20.87615808648065,-6.2609587540482945,-17.532779481545624,22.387476871954693,-4.778248656543482,4.057558752092323,1.0651113762588764,10.482561414237903,-37.888136772745305,10.301334858010172,17.359136888605814
4.8936591930832645,-12.752459424574454,0.16133362286996267,14.82602495865165,-6.3173748624555754,-10.237521120751389,5.672597734401336,29.607792142907755,-6.092384544278436,-5.098084570413979,17.42335047699369,0.8956769877885753,-10.097303934930572,10.631881395804072,6.764665058347147,11.426251374949546,26.429292165067363,23.577486344381786
1.9251064136806884,-7.399205463786536,1.795212612521503,8.392034777900557,-6.890655370004318,-4.291860606345626,8.691173696548763,-1.1533360162742383,-6.999989221890003,-4.09226655840491,22.322493766565838,-6.5170896458985705,-1.9913102192960244,0.9551880870695157,15.841186137706842,-18.44974230148674,17.5500038469703,18.080912932689355
-1.7279567600007697,-6.3448084843548225,4.503666569962704,4.0058468221605565,-12.838268849823434,-3.3293009826355444,9.171628508731153,14.967347544183536,-4.686783902195277,-6.3119913476599,13.842364964545187,-2.4068415668695176,-9.417997051986703,-3.15981149666667,17.204046324559638,3.345168444619418,13.839786289392874,15.615769584534954
-0.4013277331704259,-5.975927742445869,2.036650683498463,-3.410758879809004,-13.12488538069383,-5.78723462523911,7.504632231788303,18.593870459887206,0.9449384415079347,-6.678971027928885,5.8503623916981695,-7.867693477154573,-11.966886123805878,-7.181857505918488,18.7635682882319,7.571558027306004,6.2165459850128695,12.959382439334885
-0.7356789043844367,-2.5815636842546326,-3.4573147081721913,-10.92806649246854,-11.266176924316412,-7.173320674005595,7.694190860027183,1.620572602879669,1.2036891432944756,-5.0954609983210535,1.1785585808272616,-14.989410515034365,-7.587152130094429,-14.138244425923897,20.4221385568995,-7.8214761362243905,-1.5109872055119933,11.283673267006622
3.5191392499410146,-8.075954115262011,3.3540850851740522,-13.467888722667901,-12.24268013449062,-8.75702399644519,7.591872250979103,33.189065030711234,-0.8830907750989496,-6.9325487283875455,4.026233280867098,-10.881212280152699,-17.861140735850963,-7.817689850840278,18.273490280722708,27.186573456795973,3.4504303704497112,22.893543471353095
-2.6761109134428964,-5.954933405759009,-3.21308673716662,-17.67096586090387,-13.222311034299434,-0.47951075573816837,12.471231950116572,-22.444981199780912,-3.9481410524777445,-12.48311788484036,6.971394026670861,-20.05523200658577,-7.143759740535344,-14.00173763041592,20.52091481564684,-23.050988484323632,-17.47392721724464,16.05025084865117
-5.649291293889213,-13.601570708806342,4.185385221594947,-4.982339952252358,-12.740192582209536,-2.5558458035340568,9.636800701972039,31.40105128916838,-5.647623253755665,-12.078961387811283,3.763940106557353,-6.085172198307352,-18.89268431414763,1.5875804934291153,10.757951376516827,32.28896604967338,-0.12284151095278029,26.008260065982572
-5.400347307568033,-7.187367804259452,8.264128351643633,-24.035576913773443,-12.163520769908988,7.47533910898083,17.545927689199203,-45.999239238584956,2.4170816676452063,-15.876392218239877,9.443157041241761,-24.34301016457172,-1.6422640746659827,-12.319945744262473,25.020343956056387,-44.19962734736596,-24.770889925900654,19.270983812556917
-7.691030977113586,-15.326031904528879,10.09742436118901,-4.126482818236885,-8.464891850524499,-1.1480555806975978,12.272502159550347,29.440440035863013,-1.4339905317349828,-18.406483814848045,3.696227314750966,-0.9018743068289689,-18.47937569344007,2.1868286197295745,15.358178304244365,33.034363533734265,-6.455751740637345,33.04603566671953
-7.540742889965632,-8.817887052529386,6.560271240286989,-23.967204708155727,-13.753850367567024,9.660577831745433,7.879273514349142,-58.105116612218765,6.432387951165342,-26.212210603721253,7.128925435608005,-21.114666193389912,-2.2154683771424377,-17.0023124162216,22.201793230660368,-57.30312807090971,-37.95219143783956,18.016268425946592
-9.734657670620939,-12.565644337875131,13.961556311765154,-10.802733182914025,-8.010542931439387,-0.6266333871873098,-6.66904886427499,27.30664198759164,3.9456231057400917,-20.543191339084288,-2.231749867830368,-0.31216077844780754,-18.476515814257485,-2.6987353325364154,4.437312724138814,28.738355227423753,-17.500753271343136,27.60047445471824
-4.799919951095738,-11.529998162689623,7.007968583593954,-21.665193956819763,-11.157130448042176,4.026106577627804,-6.079077106885916,-57.884289595360144,7.60992879710744,-25.81376501867317,5.009170381440834,-17.792477646867027,-1.0505404134428566,-25.11824549760411,12.944450144677631,-57.870054806211584,-47.056025532991825,11.99321169580205
-6.4085588903876864,-25.144824249491585,5.524071933375698,-6.944458944458485,-6.103488897810822,-5.7760921653965465,-14.276925258174455,14.549676982187815,1.116518674922407,-31.96508755616974,-5.328534718272184,3.2033334485734617,-13.51269915240123,-11.505715321071849,-2.3751863224440832,15.786771456803411,-34.8196381734939,16.01938516083288
-2.45096041280192,-20.49944868265394,-4.162175760267386,-17.813186280597577,-9.451413206900627,0.6313907709825965,-10.754436523971224,-55.9820592617747,10.051777330944496,-35.38372498748602,-5.0217911516981655,-14.572032328068325,6.149706866285271,-23.483066342801155,3.596306243264169,-61.819464988331276,-48.76128209773712,-6.220143879506921
-4.743656987925066,-21.812974632413308,3.926224691052914,-2.1221433982159335,-11.044476113915216,-0.1892122622213943,-9.867268305714362,12.067689153395474,11.856823843506948,-29.624168251557897,-7.254407737681042,0.2692018182402691,-1.829823377213831,-8.510320677376532,-2.4423364968528967,3.7492130230693643,-22.86422682753559,2.0137675565957984
-6.74352620095127,-16.58519411393077,5.9608237639730985,-12.118220274978578,-16.546802885096234,4.262379364939729,-0.8730397990608108,-29.156500027710397,12.781810960802098,-33.045973750177936,-5.776304006702304,-3.4456500298027644,2.9790524939236,-16.5881264837492,2.0678465236710633,-30.772735880690988,-39.94213595257013,-6.056945291856302
-8.059883579022705,-15.656098209671033,7.50815042220502,-2.585880539766093,-16.876198667686882,1.0954336611945124,3.5327711111070617,7.848156092859257,8.529855780600608,-30.5120925925895,-6.8375912113519846,10.026116117089718,-4.228691564175566,-18.71201915218148,3.8454237597117564,14.69544915420194,-35.540799046438764,-0.939655353138475
-5.665286031347615,-15.70530489738417,11.497973297895925,-6.435778217855824,-17.110839590513965,4.079781415279529,7.256501260131591,-4.850060566769004,13.5543617498375,-32.960092194693786,-3.9928753568634656,7.090209953028827,-0.6011024377123597,-19.374138052695468,9.628798387885228,-0.2781753792661146,-37.101937291619095,-3.142501742600679
-3.954279137436451,-14.584324297140263,14.512306514469094,-2.964466260721087,-14.41862351526287,2.0825293102617533,8.930968364520483,-7.7776650411673955,11.44888663444697,-27.401393449403272,1.7812483426083743,7.180495291517145,-1.8610324200230295,-13.203190025397843,10.921764090838957,-7.040332526982606,-26.656420876830637,-0.4582838858084095
2.6396805423164036,-12.781424822230916,25.43803800312115,0.4060749793374052,-9.97141435954111,1.4515190519894272,13.732057531352599,18.010865249205395,7.38934893677233,-2.702914251514766,3.258088356893676,7.757845660387971,0.7807608957066066,-4.3006820436124364,15.634612837761605,11.108335783234352,-0.5908060021706802,3.7926148315974313
7.280602918457927,3.86378677330352,29.62653882450974,-4.625052731463081,-10.116935008056563,11.854954957743505,20.097268553430684,-12.05615184121071,0.789860621936826,23.947682790472996,14.500339569646627,-3.092007197255849,7.031351986000262,-0.6744301450233756,27.38069395232832,-23.958479131314263,7.696069361909828,5.41088806315699
3.523128273837939,7.909507019859689,37.72253319462556,-7.413144240321633,-12.120737284880818,13.468403179119282,19.237427164857394,33.17554938126429,-3.759606019276199,28.624350787009696,15.781117850986968,1.0961616292710579,-7.718960087321322,10.566506442003096,26.921443466481126,23.99165261928134,27.40398036511234,17.677961626257847
6.69957229749228,13.320814793876174,31.85468362986743,-13.231704218244666,-11.588190239173935,22.796108466408153,24.629322522305653,-32.2344476969245,-0.49718574742785027,26.268823073837353,24.581137150765354,-11.709407974196061,-1.3796378903481372,10.769618721048335,35.15562649406848,-40.94281427206936,13.805794510755941,17.448920924914745
3.9191630778853153,11.01556276973713,38.585922798740846,-0.01006826038521691,-3.1480843637539824,17.572191914767775,25.725938342399676,32.7330801735921,-7.391844140658022,34.94788018561503,21.173511527634375,4.781032813371976,-18.482557657715017,37.24028296953895,27.082868157711268,27.042532597553986,41.902770300370356,33.923396717343046
5.631327841660864,18.66982483553724,32.036975279280036,-8.080866056951889,-3.304542827457073,26.410456327826957,31.023516270702093,-48.58632420501202,-4.619001338250117,39.817643614359866,24.894450216053357,-11.835830592653743,-2.972121469659413,27.575322836854824,39.324825476974745,-58.38492127802699,26.244500728375776,21.788160660159193
8.222778427035628,15.384867887485491,31.251124460203116,4.744064988025729,6.106810023530432,17.572220119660138,25.482781154092862,35.82373960852236,-4.581131751910201,48.30019886409624,13.673279774861939,2.210488875683078,-11.392103999782043,41.54139482312198,30.572276711928048,24.26398337062055,51.59802135067718,37.87997720869211
15.4045563220024,18.446135529291453,17.38044889336378,-12.219621518725546,-1.8675250706468738,27.386245522009265,26.096195158383694,-50.07709137148786,2.682912639208663,37.64138888004683,16.90495498702243,-18.21773728036667,3.230926385764212,26.012807653959243,33.83353824866306,-61.53944805004605,27.23941015819118,18.623613835186145
12.137415996562579,17.013642471491483,14.741746606156862,0.30634532179612783,3.827651259868098,18.840330792589228,17.0432183006303,27.700575147664964,-2.3583577587770983,35.576107295602306,7.049967337588788,3.931433521570387,-13.49833121129483,39.87729771608828,18.151104578924517,22.88170441711634,42.72093487544728,29.547367084320726
13.265379443221416,23.587603541890275,4.780066042230805,-16.858600471622744,0.43812451253084816,28.4585513181778,13.75378597041194,-47.44973311115409,-2.4194646343704935,28.72533808325114,9.10867174523968,-10.640096638424993,-3.961748047639266,26.20052121649583,26.396719659263997,-53.43476413807291,13.959402678213158,16.54879844634766
18.593175667018784,14.632527642274699,7.90589230535096,-11.955830163066844,6.030616464156989,16.982574881533253,4.50898032196837,17.835756765019337,0.9371263156463523,24.21818949185367,0.7174184390893839,3.3030312049621386,-21.285071026106845,31.760653924986954,12.573581869223368,22.30876366465504,19.081128519592994,24.257441320100483
19.72228245208904,15.734767114685244,4.2947199173583535,-25.6109352591549,5.7611913237403645,19.373950458922103,5.519995711634884,-37.677488231351234,3.316874734246588,18.343759379241913,3.5561977697266496,-11.075997658264955,-6.678275211781658,12.3188572547475,16.91667211522735,-29.579604895167112,-14.375806539640983,15.953928214689679
17.043373105949744,12.636316444135906,7.81396211592097,-20.22565547959735,4.610435365742301,18.1520192091267,-0.40092210746179013,-0.9980146227615239,-0.16304866737829582,21.942147571910052,-2.199540109875775,-2.311562608275602,-16.880440650294275,20.122139252850108,6.710637443715424,11.41118179845374,-16.00004621418762,23.083990924645306
18.369108061359952,13.052161739459379,-0.7749433862831818,-24.608991899511324,2.4807331538945405,19.176320774832156,1.1019212105641927,-30.038465568520465,-0.7133898244886616,14.50531792876382,-1.7058478926553882,-6.048745696625077,-10.582274721692245,10.931660015274772,5.002692587344772,-12.63156831007823,-31.10465488049623,17.32682097509254
14.812673029739381,12.685387141259005,-1.5498066834246966,-26.84666601810286,0.6416783505893697,16.001518089797628,-0.03021649062888443,-16.496484162297378,-5.170133395081816,17.518061119100725,-4.1425828971866245,-9.103757357392736,-16.983371660471725,11.79872917930468,4.273177728295099,1.0279605404106387,-33.90786069086603,24.366336914992697
18.874297626950714,13.391514467035353,1.4854142100291288,-28.110534581089947,1.534758197708399,11.948046612122138,2.4527637733304246,-8.126781759688427,-0.4470853839504825,20.628743015540103,-3.4549954882405913,-11.0859704204561,-23.778784659590887,13.836607188497657,6.865862963850413,10.885101330792574,-34.66359650930326,32.581197323232566
12.389679854701903,18.393273926581344,-3.9741482018157015,-21.466859981792872,5.5506480537745855,10.238682535900018,0.8359026897534676,-29.24621157407475,-5.294475451157354,24.52105255686585,0.7475145766849298,-14.632146084752007,-18.56590773584641,9.330446485947395,8.874421233048315,-12.259938277719549,-37.37569844067835,28.103929559183996
12.058329712764834,11.77247867797082,-4.15874635073693,-18.63453107594544,1.849383783117938,4.62339970692309,-3.904221633426877,9.79495645722251,-8.676922919839875,15.815962478291718,-4.81653650141706,-1.284972093015587,-24.391893190672743,9.022711462108926,-0.15054485289891772,27.88324489537503,-27.786003809854392,28.317534676465066
10.067663176996787,11.595835451351418,-10.591988901068895,-28.890991333917462,-4.588444262931864,11.020477399451426,-2.4901246226031795,-46.1815015755685,-9.2271638285232,6.916087238350456,0.36094518647526286,-15.869350202975507,-14.79141774386408,-6.032087487924382,7.428084284981573,-28.8441721147704,-48.96144205282116,23.45615887204705
11.984205358706523,3.800654466285998,-5.011875295687311,-19.03256541115317,-6.6337749022985015,7.261674624513066,-2.832085409201463,13.472085551996106,-13.87884260656541,11.10295923785268,-1.2008077030537923,-4.282889810116935,-28.632184995919815,0.20186668366667204,1.3363866902674708,38.36183148706885,-36.057138433090856,40.37559785529001
14.975914441892716,5.574722775981121,-7.438240618237069,-33.49347955136189,-5.849085314331842,18.054464026599298,-3.3675837666106627,-61.15051284138974,-14.428654479918816,8.16150424880662,8.564854599942432,-22.678787320591404,-17.182904434212173,-12.705620600705146,13.703734776608027,-36.12792763735056,-60.363106688137755,35.911044680952244
15.03885444431517,0.4139070711839683,4.883168735273388,-19.538506775552925,5.871264068997414,4.140496803949212,-4.877886662397181,22.240246414278914,-20.154030718856216,13.912352353721625,7.294277191903404,-0.2551753515856934,-36.98732827551467,8.371369986552317,7.224846195741948,48.765232718120906,-37.405263802659206,58.20767652996831
21.352883011478006,8.338068837738287,-0.5676760310510289,-35.56692664128523,1.0854958407028086,13.958073124329818,-0.33164327994827136,-57.942647416422474,-16.308599123130413,14.781152015286683,17.83933863918995,-22.75554235450298,-28.66947012478985,-10.493963347224522,27.017569810336138,-31.08485806958877,-64.15760676610171,51.60048999124736
24.640543608388526,5.030455520391879,3.7487050021378012,-23.17935980736877,10.360530633226979,4.6355044330088795,-0.3735551914985491,26.91902938571924,-20.86133109017802,25.514294463573457,13.63710082648123,-8.049719876364199,-44.67145505797281,3.0628710812210906,20.24903971658364,62.90105352069468,-36.32152903696244,69.60583239313314
28.612857844789946,13.440660772833008,0.05859887060853275,-39.40787413883433,7.524142416957183,16.993783766347093,11.891157328826118,-58.0431853547722,-20.62837961560178,31.75616246253411,16.660522361168812,-25.08406185874103,-33.82054496115734,-7.306537853034019,32.72070620594895,-13.227725234330384,-58.29301372497868,63.101763541849635
27.996333948962135,7.982381382539506,3.987238289721036,-13.157580861616285,15.52594877338489,18.4152818553454,9.313631785788026,17.93740357659545,-28.69583055019341,43.27259865786303,10.991358598422265,1.2402460534775006,-52.269857323508084,18.066792651323667,33.865665502889435,61.52966516047676,-17.96083311659355,78.28029509510087
24.548836160799375,14.925574136293147,4.694606960961847,-17.18344091653207,9.853905862012718,25.208895509120808,15.331713660856778,-40.26096456092448,-29.438394961602057,50.59086893302603,22.508877645637877,-16.675775275576466,-45.62394708874401,20.978951635591187,45.8521923004681,-11.073646376182399,-7.3184355531836705,62.60146103206889
21.590751300058326,9.367539978550974,11.45818163037441,-5.87923275943378,14.434209203091104,13.448530860812628,11.781049725994494,25.178074740489727,-25.981070906708236,53.711037995034516,16.544548751364818,-7.7372756901779445,-47.867623428359636,36.6844839887964,32.54688930115367,43.47811466886367,31.54536246387468,58.74158970972147
17.071289238239295,12.695348677255783,7.969109716622706,-13.620422660775873,12.079145939163901,26.103644296530483,11.454788973996203,-13.971686115399162,-15.19876202656053,48.72685896938943,12.825202506669962,-22.237974478193557,-19.156443491052393,36.47211329396093,25.688487562513867,-7.3382642710656185,36.8133556366189,35.840729058123955
14.506149821169425,9.967390676090776,12.684692731186416,-4.66421819307164,12.066250982724466,18.251724336200645,14.841203746802869,11.82352141055375,7.107862150185795,38.470467079481985,0.21782376544735094,-13.302137959776571,-0.8972038727914153,35.674202376745455,11.018921589430391,11.186780382962013,42.958870944226675,25.24690554236554
6.082733856605358,11.14478017377781,11.444545598744437,-4.401571060891868,5.411062006906185,14.307253262465215,21.940276304918136,3.4410232674682995,24.727663296149686,25.871653332044808,-7.312563191282425,-19.01626486871256,18.433794196676644,21.888314265062167,8.655649569458674,-3.87814318937545,39.2397020725023,2.4479165149927553
-0.8746092727701829,2.6531160298686536,8.154963807590375,-3.945565070548863,-1.7339334501980532,12.414779534408826,16.052513979971,-4.25543461066928,33.16843070825049,5.168667929339474,-12.207434147609117,-20.141758995876938,27.313022884050703,8.688969234288795,1.215556736932502,-14.739623401695704,25.265363450589163,-14.489667535399938
-9.490909487710795,-5.448829731341343,5.257375402507778,0.02422580640050853,3.3268208611014423,0.1718139635149214,11.728899601895925,15.394644035815315,30.379395912983433,-10.259323758790352,-15.150425219716755,-14.627784944656138,31.600032027648027,8.674108504246947,-13.352207102294656,3.7002450327908356,24.571516036030218,-19.51117952842919
-13.418396984763508,-2.125707614600543,1.2868975041100033,-5.578271810168051,-1.5749319366683998,8.145271326521673,9.067069136578331,-25.20780001486478,34.52494129425262,-20.4122686237722,-12.137600585676022,-21.810550990262435,43.50212436225304,-0.5197993489990083,-11.70748022538509,-40.845236276238666,14.50170980842178,-35.27332916117129
-15.391472823541935,-6.81138295933183,8.06009859784466,4.7356769005887855,3.483037361988978,2.057325271114248,2.1098773637855004,27.84576584399437,43.06600690379037,-25.876061821126974,-19.868464857758774,-6.7285605093809,49.542616619519606,-2.4861646051872643,-28.518798960119568,16.958352786733872,21.814311285081992,-39.4126089109118
-16.58201521406006,-4.368880988308014,1.9437862305626723,4.012601061937524,-0.1518493281623392,-1.7831428194992647,5.408303223575916,-31.11192452286171,45.55325435506241,-23.9162371273597,-20.95997080366221,-15.671555333944399,59.682682691146056,-15.096266039126228,-25.01607934892032,-47.208950749983075,-2.8076926325466003,-54.781045735777724
-17.478299143040505,-11.30233460376406,7.54769033641945,14.030242794199683,2.266777080471966,-12.067634672719754,-4.084905535850572,44.11422680526065,46.67429343973393,-22.73599696629794,-29.865493882791355,-1.2755032068661976,43.062560499961954,-2.216653850353275,-39.28587911701457,28.668436144632434,8.996261705421544,-49.63999047216572
-22.18193690830135,-1.830075085386464,0.945642787178695,-1.4423528457362274,-0.9799618753298582,-0.5730278569127396,-3.0295758071787393,-32.4177078498636,44.08537506873512,-26.827551359118935,-22.658917033068324,-19.107628728829525,61.206709442289764,-17.559000903724254,-36.75739741933665,-43.89058450844883,-26.7593368550243,-67.05662334707218
-21.903720007225235,-11.011205661412308,4.696558576243357,10.037087736559677,6.123853549208783,-9.487432172921071,-8.515840075461387,49.74616326411459,35.833379484949624,-25.936793264731946,-27.36804025086843,-0.7098253252203133,45.6571359959632,-4.774708682856923,-48.48583478303438,45.47015203493494,-17.10417459080498,-46.28794710309576
-17.620214824959156,-7.106935133097988,-1.6100541186896393,-3.6806011479666036,5.90222274156583,5.623456509266129,-8.434167667440597,-38.989096581962855,31.97708731150177,-24.555936083156105,-19.77377181969812,-17.665184633397743,61.06334557004971,-11.813646914620811,-38.04489321168883,-47.102390442244456,-41.336191706437894,-55.6944970802933
-12.06582792333997,-15.898881059024376,-0.4934850700836346,10.823432221936592,6.949077159750891,-7.487221971161816,-8.83936868815719,38.197994966242035,28.024274214823734,-23.954489456905385,-26.92733281970436,5.222786231237606,38.576711852918805,2.24285640371163,-44.00941896993609,32.010332180048046,-19.375896893754593,-41.27166022133269
-10.221094726138169,-10.531138867817198,-8.16494549136166,-3.3852065532877997,0.8659014342187719,1.0836668750441998,-0.16101590358662143,-33.93181027956905,27.78362208611272,-26.86683079012454,-21.582240005243282,-11.636936929386891,51.8312503832395,-5.086238624188127,-33.37113456613066,-45.517135066743485,-33.64627890584373,-52.14139692651889
-14.332134760241306,-10.24225713008058,-5.288230247509286,12.48351034416405,1.715460368481955,-3.2346892005212773,-2.614293877441746,31.149234581773534,20.415150104824455,-15.812186935700936,-24.344301963023405,2.362227000195471,35.39635367931893,10.926388203796764,-39.82199872909939,20.514968718347635,-2.8959545754520573,-40.84216235527114
-10.824514468419638,-9.56337595173747,-0.8478798754857575,-0.16499284445120566,-2.514097924416869,-0.12945398855976897,4.308889435579112,-19.59013747224263,20.079257237523763,-11.982251502193822,-16.072626185602058,-13.425142689859358,39.66349296160911,-1.8684229992508605,-28.791209485076273,-26.928660426849003,-11.794041871517113,-42.14022851632209
-11.3194980617663,-8.885099633972834,0.27318917139004384,6.4239871221830445,-2.2522648480724428,-6.593049496357477,3.7137106045051134,18.052346199436887,19.15866471948281,-0.4353559153816393,-21.376986873162554,-10.85374333314219,32.893978861000775,0.377724539257402,-31.23630810498995,10.885347164318675,2.2582126336750576,-33.476773515290276
-10.543561516603853,-12.211368648824728,1.102336417539111,4.906351226962137,-3.065481628718126,-5.437690149810141,5.561223759178086,-6.902242323396794,16.774476188319642,0.4688773314455137,-20.921174276597874,-13.06842176413225,31.78735996312145,-0.4017815784162302,-28.895334406038778,-12.334434321336872,0.68614275575045,-36.72724669483897
-11.328774049345276,-14.170980201703763,4.373947221695966,14.227769107548248,-5.344329380373621,-3.890026861045703,1.5504846722546821,0.8599899838015119,11.559504931263938,-0.08969322984636019,-18.904493125707127,0.5366435024469851,26.382620628347148,-0.3982219061515,-26.358238946024706,-6.450041361455764,-1.9591079794341786,-30.797691134625456
-16.311890206490105,-11.345886090786221,4.91212907431729,17.10288856090192,-10.55362448830908,-14.645545426722915,4.1816468416546275,13.40886839615747,7.908369275560219,0.5257206344280494,-15.912910867211071,1.8360622951278494,19.218934781695236,-5.5686529838257535,-30.656415312856023,9.397478837846752,-1.6734330040360392,-30.141566655247164
-18.363891335364514,-11.54867802601022,8.283339992750076,15.289616385576267,-11.85727557119345,-9.383482208427147,2.3216897551092277,-8.318763889505858,3.7702750960039886,3.3893815917071155,-12.727709531061468,-0.7715601397359713,21.42935630809251,-14.643460578212524,-18.547357162898216,-15.476370480917005,-6.171655687847567,-29.290153359201263
-18.36369429659993,-15.951221192151369,5.112402894155876,28.221909946115325,-9.938837400462768,-13.494832055522158,4.271482319883876,32.455853146656466,3.1492065802128923,-0.5808544041225918,-16.477923364072826,12.928968539464396,11.529252720305283,-5.356618349112729,-18.74247540879537,25.863507048242166,11.792870349857456,-26.095093730813886
-12.795618477016234,-11.07671956866183,-3.2335087174246784,12.149168267847003,-12.903853178975883,-4.322983070728506,3.976204803932265,-25.20729641870312,10.830408290462788,-13.14280264280007,-13.979775780494197,1.3354916375376664,20.18322361082754,-12.278906767043575,-17.37440576149947,-28.98783894667381,-6.27670566981169,-46.33814310481302
-8.59336230483776,-12.257410305476169,-0.44558789345047245,19.025375176559415,-4.150458056384328,-7.258932899320767,2.7053671766546508,38.909931531047015,5.036217955500044,-7.440562322414534,-18.02644819964384,18.159807239315302,8.132925493801523,5.9966134467853,-28.310581631580874,44.38695044307858,8.17548397865598,-29.373955923998743
-1.2646694761044752,-8.360282821243295,-3.61397557726114,9.885157831059637,-4.089070920225312,2.307082375643433,7.783258517812489,-34.96211139569492,7.83729714264452,-1.7361103699252478,-11.137221741037317,1.6822649247308146,20.203328023126662,-2.288604630595618,-17.66380100770647,-29.211763807198878,-11.745980066369807,-29.695661353200727
-0.5753146314223085,-11.690184033796537,3.2771604629791593,22.131495522851008,3.003252942790029,-12.441893261349971,-0.5170268579753365,45.07550072559257,3.0224718344331336,4.45886059270963,-14.015553080150706,19.677377973581446,4.342921537610554,7.885710414447773,-30.454315427101083,53.34551702419214,8.081257981396028,-12.732528623650609
2.166239568571531,-7.4031089902051495,-0.5733162728279702,0.6854869213814867,-0.9401201192771718,-1.3097707446145126,2.511876412860336,-42.75954494295971,-1.1073406272367077,-0.965192354164337,-4.8837811153537976,1.8316153236370916,11.91974211128153,-8.402950845417571,-10.333641694419365,-35.680708965341395,-23.262028637128264,-16.473526944367922
8.913145464594686,-8.292193108912487,5.635654346955388,18.59518499626055,5.077271992722678,-4.043241057304423,0.268108934164875,44.79964937582908,-3.0872660896735287,3.4764486391062754,-3.2734680315353515,27.736077180963296,-4.33249276568608,10.662809929238286,-13.064381845383485,52.83585392733996,-1.0866149922366928,12.988308904577302
8.727732747182403,1.4631461139452107,0.7123035591177826,6.133025823497657,2.89113725046466,8.557367975056344,9.54875779012691,-32.19356828300262,-3.7962175063823604,5.283605996776906,6.245295721616017,9.303524031695297,9.200378947053693,9.125154233770813,1.1977901040492291,-30.71962855212973,-19.33912150582791,11.39407954259481
8.641354318505465,1.4524696243294084,1.6490383922377045,21.30776872416284,3.732163048612,3.87437763847269,8.478444357196057,41.20695575650945,-4.406082357520718,9.632151232964182,-2.402119127230824,30.226681310985896,-11.74037403927404,25.070645049658253,-2.8016016329316047,46.763271423438475,6.454520623074883,20.834165575500165
12.364998921409267,-0.6092324673141754,-4.249687696717611,8.35690485759411,-2.165377733285205,7.9824096616101,8.483078821669563,-22.60088121543154,3.2863936600236023,0.9945130596243477,-0.5043489227848177,12.086425818071906,-3.188871160206414,8.40090371587394,5.601942116539677,-19.114745137541313,-6.128699816340074,5.5657297020360055
9.742255185552303,0.5515864209093442,-4.874355791488185,17.378914753070937,4.437136194464291,6.42812223519096,6.339909808108846,26.87496652982403,0.04263863587065231,7.984416822379249,-3.8819588330338126,18.65330394279211,-8.505089180556123,14.487908597249511,2.775217343169185,35.32209800783056,10.295177118386801,11.194833150896741
12.101413540909995,1.0286452431525497,-5.498525223159237,9.506076695150428,-1.5582883379502215,7.2194524032134275,13.572504199424472,-10.954556703466022,-0.1722888924284689,11.070320054171157,0.7464931867389115,5.493085907536317,-11.477784265451774,8.07725286178651,9.519292104928114,2.1603508600658348,-3.6496376562758,8.033420511450212
11.532188565392977,2.7751272776926115,1.592723645842355,11.984958029506078,2.2120167456452187,4.789909954768943,9.086743209664712,6.881423479327999,-2.3389331384469543,13.181958581893634,4.20116957171375,12.840802503238217,-16.59915434419835,12.313855911720326,4.935379694194822,22.320012127799085,-3.5287578880765658,11.804286561317245
9.206463613031504,3.1543019027181867,7.219520971337884,8.799746175578877,1.3924087429248149,12.420947154665946,7.335925043052949,3.3308932277524095,-6.847925658335747,11.487259614188197,10.779001489551703,12.96169721722741,-10.68534720734559,7.56854458149094,10.801126088390191,16.795850705971475,-1.7446046232779397,10.300113440247902
7.5656715931976155,4.021694400199314,3.2762316445602444,10.692848276923716,3.404920491691147,15.170928002575721,4.901981082236431,-10.76619488933635,-12.136744299749605,12.138660492509441,13.936911517054135,11.617618205032555,-9.84983348754609,4.486042745787984,15.397572613757351,2.6778528152804273,3.656086248663998,5.962245370965139
7.195747278794076,2.9358893148522363,11.73580414519803,13.56269387524998,5.222206099819216,7.8639891549532575,7.449012212791487,18.985464100162815,-15.763948309361574,13.183004159440552,13.381918136825586,24.629160627155944,-14.776161652734775,12.73449446140118,9.056573329794794,32.50576542938004,13.552340947047476,14.708795799967739
4.385683797466975,7.904849187242714,3.984477219371144,8.424824380103065,2.8403417149753065,13.059064120739922,7.652639599719522,-22.55266140420643,-16.752964063776247,5.049827854627347,20.442311419286167,15.960659374013392,-9.643722844063035,10.340933551793515,11.211989023817617,-10.909815700203668,-3.989817851204246,11.734601645092916
1.57691082287803,6.037779942178957,4.1436689805175835,14.02957825313616,8.271272285725985,6.732343028336305,1.5088473400010889,34.543840778271644,-22.428126849287043,8.14959306601108,13.926354457029323,26.140117324924724,-22.38257652366654,22.50107988924878,4.9690012964717525,45.96879877039866,9.038408237718482,29.852567642274245
3.6523004472197824,12.959947372993115,-0.9704594632471073,0.5913959399742108,11.065661924696805,14.177173457043938,2.3966970933291956,-35.99806859156487,-19.99627845474047,8.028946077657173,17.467213535174242,10.733303138817018,-9.437317095682914,11.909697211354725,19.038956519170767,-29.86987275121852,-15.820958947484112,23.554092102038116
8.561024126717022,6.503071562658659,3.681339660599028,12.251625986944376,5.754718866665998,8.147037489634332,-0.23089594473330521,41.02106719163352,-17.172387046414944,14.746623976151163,10.459099108619007,22.963725298532424,-30.672086482912896,22.219813380353266,14.651702736513542,48.492497969366894,7.078013202078989,34.44127873835566
16.30306477415754,13.034769143674508,2.376125782443806,-11.928112648898669,0.4440765813748442,10.810232436984913,4.5636861745069375,-40.84879509391343,-9.26888872250455,18.536840631433233,13.41013067076847,-2.892235528350815,-20.558488972990464,7.434648359362367,22.178768106262925,-34.08572739356014,-12.59799370748685,16.712555079067652
13.401636077833416,9.019551217230509,3.6100777265637247,7.1549971346937795,7.145677481956336,-0.7828215944200494,-0.5050255246086675,43.397249416522754,-16.50094423148045,25.84499281425075,5.812177287325662,18.030036286195205,-39.54661433148023,19.11750206094808,11.736855204140594,57.94733684596438,14.703255888992924,32.185179567391174
12.259251780491407,13.012414545300311,-1.3083880694131604,-5.207169506018081,4.9608048760874475,2.567527499738784,1.653024540505494,-39.44906259056752,-19.434672729219518,23.38961183443655,12.274984392146873,2.5261852529669087,-23.76824982668443,0.6268958803372424,19.36164127557049,-26.48799300333574,-5.7461615666933765,24.412888670766005
6.625796181599147,8.50922682450264,6.663942948231261,4.111243186484657,4.43653370206043,-3.4555109832297806,-4.0015044699446305,37.76564475715795,-27.05459664803689,24.06150141965015,6.723930706837018,22.179373662338374,-38.36105815642589,13.97550304677375,9.310364635935144,49.8203534798851,17.461479485785325,35.58373778504083
13.396036925109815,9.084439344611141,-0.6960609379646732,-2.097319912501046,-0.18890441354210896,7.222664980914951,1.3792825698822364,-29.064884549152207,-24.02846201760826,20.340995687428794,17.87038758871531,5.504174160690952,-24.535030501502632,8.478962245890022,17.32572945386924,-21.92150261002899,10.692320081769308,21.16571051260363
13.136061265779341,2.2378863968748757,4.639326870417949,8.296580303860248,4.7566117215240915,0.22651511229843457,0.9982058267509544,34.86817741094891,-19.92673949522818,16.232040193938072,10.655222502438061,21.34933163575664,-32.68151225699024,16.657304351774634,14.98930470129101,41.88441327557227,39.76775038173561,22.85857651609104
13.365491692439514,5.547985844032253,-2.135004407029677,4.335481532579687,2.768960861978109,3.7791094287497895,-0.6525269366368311,-8.329476774664524,-10.159528315431025,14.957316704682652,11.543679620774034,4.772486651968905,-22.077178034020953,10.287443478033975,20.07477051642241,-10.718969380883202,39.550127126631104,5.114834599706328
14.572592375518733,2.510603840844821,-3.538363993441484,9.066650474790517,6.250712097037036,-1.3581448633795556,-9.04179715208892,22.790182045824913,-6.934059923908625,16.126168763070538,4.4222288418402735,8.997145016683804,-25.04669286625411,15.932283580289067,7.093428246010319,20.661933167474192,52.22765948109569,3.188846838658079
16.171391334155956,2.989195972995673,-7.188100209424636,9.696961896424078,5.045495785963835,-1.4155254670031194,-8.349098547685244,4.9830342115389445,-1.754125777972154,12.316580822008135,2.279347058793796,8.827646891295311,-13.269265998881629,12.497749071501993,2.705812573756223,-1.67038966343598,57.09696788274392,-5.185431880596543
17.185284638837178,-0.04757163057917779,-6.6388466365659085,14.429703378853887,8.82146276795472,-0.7876507989607475,-7.558990440154339,3.972687665711491,3.5247612728288082,9.290330492562441,1.7946690050377203,10.318808980091648,-6.8623466682280645,20.980248033495002,1.9313504968962296,-11.601742667485773,66.36532703878555,-10.632937028777233
21.03226570311257,1.2129432419717394,-8.3360583557355,19.84689010421213,7.617557336795885,0.9160889707569009,-3.5464719104425715,21.028642312394165,17.008176917681304,0.1136874501756111,-0.9381165723246467,17.57229289800395,-1.2359767866655025,28.39129267584473,-0.30818859117191133,-0.831310588376684,73.8803522845143,-10.80995944346922
17.751216606780943,1.0089565000222913,-7.787523314423504,13.838997053688118,3.875255998522988,6.4300884435934345,0.4657053604824757,-11.525966010839745,21.117710215768962,-1.5412971324700173,3.4561321990659963,1.7791015636788279,6.148988207310501,27.99248830384595,8.585015823292569,-43.481408542563734,71.63415761084826,-23.978571123982178
15.447700452899966,-3.3939264306197465,-2.2588685075051993,16.035263422186983,8.727573339757669,2.570529614563247,-0.8936800332638475,34.24045252428303,25.423800994701736,-1.143490774833701,-1.3314279863530099,2.8812867034235463,2.0111379358047126,35.31140273662422,4.489474136599841,2.832860636437249,82.47869856912423,-22.01341541368297
14.805291227819097,4.410816510652046,-10.500423449554617,4.267414294320465,9.088403596031835,8.38064778921007,-1.3745778146020555,-26.147622442739387,28.852194403071707,-1.9156345502912302,3.351831026640655,-17.305292296206915,21.897930999385434,18.706913109297027,7.815626443444254,-58.473619424100626,58.75703798060017,-34.3095424285013
14.16377632851658,-4.77645769732543,-8.3907693890821,10.567219204690119,9.352375687717322,1.8874265087418953,-12.305330277153738,39.930497400677496,26.715298191110715,-4.443712077744113,-3.5881623394733753,-7.119655327116162,14.343778390646559,21.832012054096793,-9.07369509346699,11.762873968831858,64.92331998564998,-29.51888567390403
15.085647794186535,-3.22093001622967,-14.875550597980418,-8.718302240338579,1.3162692555390816,6.43103986306928,-14.740379569857549,-39.11141140363055,32.19688553721528,-14.001279984558593,-1.057335405591903,-28.867405207448314,28.37290450944135,3.1821407051440715,-5.064609015131977,-72.59491805420838,28.222559474270085,-41.91937771519155
9.172307434471097,-6.938449436140628,-5.345058837385551,0.024977431560545327,1.484271393584649,-1.5240541689238256,-21.66824811922593,41.32109509892773,25.863043398017044,-12.131065479460027,-5.657502656704034,-11.160698669368166,7.148542201169292,19.39876699700569,-17.560056673130713,10.625811679442656,45.238288400995216,-24.830682166161086
8.33796632257734,0.7704775479862767,-8.120080585978007,-15.059174960491843,-1.667203024323177,5.366284191916958,-17.26842421896775,-43.581673710418556,27.440611518473315,-15.044294910319032,2.8264899966761052,-29.29361828075647,24.597637068766414,1.242529847916316,-7.399310867344106,-75.59187281100748,12.258009390156811,-39.48426306183205
3.5980785095172916,-5.387484275847368,-6.2082104335347665,3.6473328039367425,5.143326072695362,-1.7070066341263335,-19.70528889846567,40.657995876950594,19.44882965751377,-16.295600259605784,-3.926099650669258,-3.577413143185831,18.21927041239608,5.2572355622493525,-14.622071347391143,15.534591789922597,24.88866842432021,-25.723010963919478
5.011356795996933,4.568610334898894,-11.816706782038112,-9.87210735691156,0.7241556909052074,7.236970591392165,-11.107516206228151,-37.60562723911324,22.20048203485951,-15.006106004283318,0.2570057595769013,-19.560228798225065,35.67045304373252,-6.936634816514516,-3.9739198952293986,-65.51191549491057,-3.687451311078945,-30.32503936420934
2.6166767336636134,1.048484666725198,-13.22668118706664,11.766368225289423,4.606859681805743,-0.3218412932895891,-14.229399185825134,34.71812694467254,16.554624906824618,-14.886851677328092,-1.0306905373428537,1.5677657464406969,26.755138758300276,1.5755156243763722,-7.2913054322761885,3.734397197084192,11.101263147965604,-12.469466293597826
3.5430179358969927,5.439201879785923,-13.465563431635104,4.889934678929311,-2.4471117275449608,1.9841171770659853,-6.2190653038189065,-25.773547601582457,18.136469102399026,-15.058964260893298,3.929744442448697,-6.600658220993612,31.806005036667457,-9.343674881059247,2.2816252926699585,-57.19956290403847,-5.35569577000431,-16.590614339809573
-0.11993236891401793,3.5804072375769254,-0.9121217255184326,12.565675836530842,0.6563375817696437,-8.7947539440427,-11.002698594755131,20.47374229913349,13.85984896797552,-9.467711715005922,0.39199670490336314,10.329895021786971,18.49836925174078,-3.463216951014349,-9.14238847475218,-4.560136483750046,4.559740460336549,-8.89895363218739
-0.36427565367708503,1.0386090187964638,-2.1293001038736263,5.4962888268883505,-2.684584746265653,-3.263506494949521,-12.955097354639049,-13.749933791113616,11.244381176469648,-8.855494481507499,2.7117594282085236,-1.0593240350510102,23.74688507605332,-10.76407059096973,-8.262081902049449,-37.3738549698843,-5.051568175280671,-16.445723780817502
-3.7331169557783497,1.134186980079734,-2.9567643805057444,5.850098579463838,-5.829129691734893,-9.254628606548579,-10.416115715568822,0.9518880404679726,0.13363063543563136,-1.9917226244547308,-0.9275479443742617,3.0800441566393655,17.18002175900307,-9.76156825983028,-11.679294986875856,-20.2871444855649,-0.9859961118949983,-14.425901741006763
-4.562344018760914,1.1327404852016112,-7.496177178458948,5.521529338226679,-7.019436014830113,-11.924176506053207,-5.436600911991629,-0.26557258029540765,0.059114499830588585,1.4554362711307798,-6.131320472506928,-0.787481672258493,15.790251046418641,-10.514493922906453,-10.116566201160229,-19.80497693540738,-0.6266310505847343,-17.29287335056907
-9.0044313064739,3.3780708759869134,-7.641982994259522,-1.4465256006150362,-5.27890516671265,-4.4361416162401515,-4.950286145493377,-20.82037660267508,-0.8934431075790954,0.8999833425809491,-7.040086467918658,-7.6813227924562,19.870569650603166,-9.116576084006386,-6.113020178423479,-40.12668291918112,-12.37205241492116,-19.870816016952034
-9.539769767536232,1.8154133285849654,-1.0504323719521258,1.938394773808529,-0.5098590273458061,-0.8532722226342777,-6.906391470230648,14.288581260762243,1.4752083996573813,4.838088469544687,-8.341409520051606,-4.808281386255751,12.819183775329668,3.514315663232285,-7.28598363998581,-3.028457257912777,2.3525296213616222,-11.51507103162909
-8.316866670425227,6.991818324857006,-5.3976119530016184,-2.683351662232841,-5.114810980842213,3.2189958319752288,-5.445484007062053,-33.026781753760055,2.7704378650790655,9.168071983085312,-3.687527914893864,-17.656993894082586,17.097394224528088,-6.020806493121272,1.5014705468712108,-52.94613918785693,1.7495810508511376,-21.32767725226379
-8.363148934496078,1.0359334447588693,1.4847502380637438,3.8291639905336394,1.2190677690274914,-1.8874882902791823,-9.454448558075494,23.17383432772739,0.6484261131009816,11.350777006278056,-7.141146950544152,-6.871357429983065,4.872764187977818,4.368501562419146,-6.215927381905908,10.025626880017576,19.99928605162975,-10.14791051066578
-8.21378736770671,5.3348172796864395,-2.2787139772692053,-15.34101564440618,0.22979789696432462,5.409601030094399,-7.897989846811023,-51.78115631808668,6.046806113867587,3.3782121857894705,-3.8582801593501457,-26.065437850009882,15.110749683847876,-6.627027275909496,-0.06664202758802285,-62.45682761808275,-4.422760119977092,-22.019438573274495
-6.403952660243393,2.798378279879295,3.331798398487707,-5.896177556372297,2.7574058714325815,-4.8706977397528295,-11.909118509158318,26.292234846028112,4.121566977013079,10.641332290304673,-9.268839825638128,-11.664012979934574,0.25204755958956504,3.473679839502749,-7.687835233148842,16.231932302710717,19.695739841695204,-7.332153758316766
-8.304857143283503,6.708081551079907,-2.9731330519711436,-15.493290588948671,-1.9404431784885823,7.994857397096711,-7.425147118819225,-52.76700910514728,4.247816952681446,10.77645618007543,-5.306132669899844,-29.781339695985622,16.35221556356366,-7.224592752835338,5.5889697659567155,-68.85433458194075,0.2635015333288102,-19.602519327666514
-6.006260271145756,3.0012244320928185,5.662337813893762,-5.459882440744492,5.179525848942566,-1.209303186894739,-13.294045564702994,27.159183453509243,1.15200290699733,15.893084030613199,-10.818090485122985,-9.02957691839528,-0.16392158908895738,6.981931217361206,-7.990882546467047,19.008233469149495,26.539660582471345,-7.6578984867259425
-4.391085190741794,11.014050861729743,-1.2310356439697094,-15.542647270201527,3.9998334893346277,9.411954811172286,-14.574204532996363,-55.71147338566028,1.279500211153195,15.541777120467856,-5.394232826199881,-21.577761748607365,13.204601998043222,-7.130263656997052,-0.8680929176424796,-62.08013504145492,2.3313007494471627,-18.374022931195213
-4.924233832410092,4.867270568716969,1.7377279804550096,-2.967489939584876,-0.010672576172729542,2.94396915809732,-23.96115405378752,21.47747819198631,-1.1315335403056999,16.265542618914203,-12.17943064704268,-4.2413036543905145,-9.754150592822409,5.029451469443927,-7.9064943820321485,13.080814225630292,23.928908330685072,-3.9962715745951733
-9.461238730569145,5.0690193249360975,-0.8613245902250046,-7.774080065118559,-6.949636625109106,12.29736160613092,-23.48589264033008,-44.989563655702135,-0.5146431032697354,10.447014516139749,-6.661577012018992,-16.298418461828074,1.273403151649683,-10.836675617927355,2.1443704857514145,-55.70882933439016,4.417045913329101,-15.013707346824896
-11.849697328300374,-0.0019641218168642283,7.866566055436342,5.48734475107795,-0.7035188422503484,4.854410091878078,-24.769712960543302,10.516425317997193,-5.170772486981516,12.051186551772028,-6.028419325978473,0.6502546175858779,-8.889351587736416,0.6432442925598174,-2.2589674172056156,0.4026783195554664,29.148526552478472,-6.503778525733745
-10.820093633679553,2.642808978494464,-2.352528446789811,1.4646841945138451,2.907138792326179,11.670238972820293,-20.29298951801093,-27.53521522298321,-6.408419017376515,11.116905350968109,-5.201739548105597,-8.571875692944854,8.48880465234431,-3.0119559011817127,2.32133087982458,-41.04900660674565,21.461969350878956,-13.037331355124884
-5.395884393109796,-1.74297132975025,3.931123372619255,5.255977985790668,9.155865398721028,3.642804565740149,-18.35664963690543,1.1118395199522677,-1.493202217398279,13.112939743981238,-7.697200082271141,-1.874291808758384,5.067296440441424,1.5378729121289503,-1.8884616214591872,-9.162847883516477,33.994838371847244,-11.95777388194179
-5.83116594882835,2.1729684614094964,4.7445025112485855,0.0640942159662492,6.128427062827848,0.10830221735260448,-16.42161042420311,-5.594774590994331,1.76222245803993,10.22660521156319,-7.167030898731307,-3.6713975310709044,5.260563580131728,-4.652922222743102,-2.2905143726389157,-14.09678271968258,30.223078031979618,-17.132506523487038
-8.024346286461839,3.4529692706970705,3.6032608825858166,6.201841120279325,5.73907769533482,0.3830905046875319,-9.995633146974033,-12.010007027311215,1.6976372366123513,5.875856708592283,-7.712839492363253,5.373070534265308,2.0372524106815835,-6.056812524991653,1.8964169753251925,-13.760328835196528,22.25618452598052,-17.91683451712401
-7.483201840505867,3.3665890498379176,2.9488160088364586,9.50884355844007,5.1557516787436155,-1.6853054455033023,-6.598380100843842,10.089205551655773,-2.858886849083138,5.236487921790157,-9.822896313520937,15.786342017430208,-3.137768446434121,1.3301169698134157,-1.7302177960940206,10.499140956845771,18.88328816779746,-12.748230567489484
-8.114074073974841,7.285010359948282,-0.24624727399175939,4.8092373793456,-1.0903763522037222,1.8133541101836066,-1.0540063866829161,-24.064077800571972,-4.387739739562958,4.499779907697138,-6.368167434822984,9.990053658025198,0.18488064369237733,-6.61364836149961,2.454802859218824,-20.42114157061055,0.2797987955394845,-12.173724833538154
-9.721678709358793,7.590935855817527,6.029948625132516,9.095464343906674,-0.9873970375692824,-2.011789658519654,-1.5657765618363797,27.329160134966685,-7.576528687983611,8.743867592955498,-10.239455024668999,22.06678623520552,-11.334999820541519,1.06934192028677,-1.7597224595485748,34.789577236917914,9.317392907035781,-0.9587018007043362
-11.036495643371826,12.29230615619197,0.7809659166187437,-5.660253085004294,-2.8362117208883406,2.6597801340765868,-0.125769413654778,-40.3240666630803,-5.589247356686522,8.105251236651826,-4.346634412155546,-1.7928461233633255,-0.48981147244653656,-9.019912822014959,2.228005865358866,-33.34454923437386,-12.793962884804532,-7.619211308657061
-4.343593211620534,5.86154605910168,2.366436886376845,7.808424115319851,1.9570665490298342,-6.144964905737055,-6.402113824057571,34.69896596740751,-7.801073967855448,12.056663276665848,-6.170420336627232,13.60764487700784,-13.959955712471158,4.818388666680281,-4.7229451135924805,37.97346594609354,9.337430694195962,7.884432557406807
-2.1431912207403587,12.420122424474588,-4.936556674829758,-11.241626705495953,0.11099018816769846,0.6759451144303261,-0.08201161861958717,-43.895343956931114,-10.598706954498295,9.660368152416877,2.5512059329391548,-7.514119307434726,-3.2095382647434665,-3.31494548784919,5.805811422854992,-42.47174794315042,-17.94227744022943,1.7039190577937227
-7.462707922147885,7.846578063910795,2.7981103476231173,-0.016487993582281035,4.809358451095257,-6.858452464635252,-3.3337807869254625,39.22982906486213,-18.767410004907923,11.170359665244114,-4.354008076692491,15.116550912175862,-19.21590298662484,11.990879694537218,-7.787937072841455,48.85991462938753,-0.002817451492482803,18.078221130264673
-13.270813548570029,13.23498907036748,-3.9222199458242324,-7.345040237250204,-1.9168492458315747,4.064806878055152,5.717902242602129,-43.4695918197894,-19.318737661483322,5.844217301825711,3.6808327193903327,-1.5093970209925809,-0.6499934819742954,-4.733786495718281,4.008268707596072,-34.228220674808156,-24.540922298718595,4.66280873544245
-6.383739898265438,8.663180294477385,6.055252027459402,5.738143403911619,7.374194949795337,-1.2228104635204025,4.025801297967078,43.851346265572495,-14.88948240692664,14.09233953394793,0.38581916089828283,14.484159539681787,-9.817453253086246,13.113580328749087,-3.4351731217722152,54.167578095980225,0.5345728070478444,25.130549088557153
0.21000769878995929,12.68612583874128,2.456608172836189,-5.103563617595531,6.314903351199712,8.138505884409499,7.215145984260955,-30.550714441256826,-6.553912361834637,14.722927482848393,8.026939430222445,-5.9467764584446705,1.1340042132766808,9.477382914638538,7.284637562602834,-26.77818391185102,-13.449646082966751,12.683570500681704
2.0181481483092183,10.069221378256561,10.575185419039764,2.2203111302878056,14.925114121412573,4.609238076920738,2.785737391044689,25.90680194055504,-9.54666741254075,19.845471675813627,5.803118780506244,8.78094303213508,-7.249355094987981,23.030031968650405,-3.09072483873354,35.536939495055194,11.53486786341432,24.158702174684578
5.388410371932935,13.703291434611952,0.4300406754602948,-9.107214990040333,8.009131030710822,11.920182264588938,5.288571234106811,-32.4829914331858,-7.754252274880371,14.12763775263862,10.120881908804641,-6.079739894575983,2.044744516244511,12.950537803227224,1.474432001116405,-23.734821224318953,-1.4662736551893794,11.801335458887124
3.094098289035155,5.912287580720198,3.3692925737965815,2.6136974235894352,11.934543943666954,7.512366234090264,1.442187861791405,8.93160651338577,-11.919049587782057,8.897654578605204,8.7730360826773,9.237734793664199,0.4025765631608751,17.325364898009433,-4.801548826023998,16.894311917833956,3.895354918256217,15.846487362900803
-0.763185431038583,6.71604882857198,1.9121906083396416,7.6950787051642235,5.997911290510067,9.452438172620695,9.801551445201309,-14.01207625245533,-11.59171173782331,8.84302493653972,16.40826752082483,1.9005519915205196,8.722888025095454,6.7594794912730665,5.034855713100889,-9.277398573549267,0.08017903247968405,13.73524974905245
-7.55067065545385,5.27456808465222,7.289360824018166,14.633134561225807,9.926095245383166,5.435489629594654,16.108625972632293,-0.43360415318006496,-8.33479248139648,8.299531483942294,14.862262152004469,4.819391659917789,8.25538261511304,11.722042783953793,10.377849464173384,0.681331831230839,6.424338176371053,15.428743677265462
-6.721342025457222,6.763707451316568,4.559155876894637,11.8065752133874,10.04701019730779,4.93428879530123,16.55475409878443,3.865533555582987,-4.101475845348274,7.755394921298395,9.115590700793474,3.6385867394247713,8.17987697408862,11.216587247282067,3.6101159651860506,12.395006460458404,7.693130706256662,11.551859363969562
-10.580094428432826,5.71463520511443,-0.4189719396970555,7.80926208259507,12.9037221043521,6.19096438016916,14.557951689953875,-20.15793074741604,-3.872335090011273,0.7651369003213997,6.297294546701477,-0.6652654374037255,17.57852927013095,2.1180121898351283,3.5795865801320286,-9.781420613002565,-2.168318468117633,-1.2157314060551787
-9.654145738135883,-3.536795970798112,-6.863771811732915,11.430371069796589,11.757843646015981,1.1975504094815554,11.290107003173848,18.903640230049778,-4.522350314396099,-5.639952198532129,-1.7958497690572905,3.333809831144767,6.763374124699824,3.176551173869793,0.7157905366302306,32.493425453555574,7.4067672001006795,0.8568388286104565
-4.529460085258005,-6.927869959689209,-8.915789409298808,1.5758086046713178,7.488290635246225,5.579254754695131,8.704370606299225,-33.34664735354136,-2.340554429190129,-8.823179621918612,-0.8081273760259591,-6.825449422409092,14.602179048565791,-5.920657758966183,5.272778551264757,-25.529031198132984,-9.578504820517889,-10.941767286736367
-11.514896772630637,-11.196969329727835,-9.797739186172794,15.355493264512283,7.51704690161129,-7.61748863090626,0.25767004355990064,36.180389577057284,-4.553646476429893,-14.4487597594763,-5.095198652611018,6.943492864530533,5.352197424085929,-4.763198320822003,-4.527137186615012,40.275755974703465,6.349331585273438,-9.853289088557464
-11.176581211069118,-8.726788845252914,-13.904227409103214,6.57729032854729,7.0588782116095725,-3.52889545333878,2.8447908420847794,-37.36304539048392,-4.227952397949956,-23.200361396241803,0.7728871121811176,-0.5748804548335724,19.150746087504302,-22.843758753020364,9.695523674271774,-36.990782798855776,-21.95943651856004,-18.241307603402188
-9.471650237214321,-11.529228997659509,-5.024076089127448,14.108955794716444,11.28963930914027,-10.280422924854056,-3.358791430927773,38.605632773337476,-8.199538700064156,-24.628669997353114,-0.48926197526996396,21.401471143437618,-0.5460214656880709,-7.231893865321078,-0.5951470034480582,44.62912006117964,-5.245733362629544,-1.827912998712888
-4.739935939552528,-5.736889065131956,-12.259297559710024,-9.022908843952264,4.38877032222689,-5.996764373359371,3.619911886971323,-48.51600583619484,-9.632387460469786,-26.253394186216006,4.69280841169209,-0.5660581733163399,11.204276422494013,-22.18644580911019,7.66790312705993,-43.18982174077493,-34.33135638021708,-14.617790972318527
-0.9854183123189921,-12.053208225110431,-6.507889916153703,5.737403588220074,2.0791609902001715,-15.971300631875007,-1.317140989015213,35.16384927854325,-5.303816319969655,-22.31278882125944,-1.2592661738428437,15.066758449747145,-9.368880628104902,-5.011193662382018,-5.066721511200807,39.401364449564106,-10.289114199209195,-4.266346681504077
3.745045824285117,-6.94266923080086,-10.133479180218337,-7.333793303140482,-6.674520165163784,-2.8988000754191905,6.049167210113673,-43.95364457454338,4.102548308500262,-23.158634704001212,4.701770044168898,-6.310579538502715,6.583197612424376,-22.113448009043644,10.322811784884642,-42.27035899325645,-27.847114328484913,-16.379697141501428
1.6388266639500007,-10.913395467266053,-4.288123898998133,10.358116428196738,0.9796308216440819,-13.264371044072545,4.038816155969812,33.96060981621054,8.332622321866166,-13.263410250853944,-6.916691032981831,8.642902687893507,-4.710010195667495,-3.9609441403745596,-1.73076147538331,36.116401561197385,0.8865096917248092,-9.062622731888494
1.9733999543457275,-10.097985592486154,-9.870581712550631,-2.3206415149014266,-2.5955340847572437,-8.688544580162235,7.20280736420594,-30.80499316954834,7.777016145077864,-12.842325457215004,-5.157116043108302,-10.093383510304147,9.584315910247714,-12.859365457052991,-0.6994892494599395,-30.91172567397792,-13.445174031324663,-22.061773149418304
2.9909178392449203,-10.551217029176883,-6.665700513179337,3.849404117401782,-5.192805257088837,-11.730280414637525,1.7713979481522042,24.351209149600034,7.025623891755819,-7.442091198138735,-6.7189485019828545,-3.2411797772993145,0.3443148022417404,-0.7611478687887621,-13.341602211842053,22.957956704432387,-2.7748201998955295,-14.556161072317238
4.300741858715634,-2.7026285309708173,-12.935476654532323,-0.8197302436282854,-4.468405101454656,-6.862018427443423,5.030006609655919,-6.433299435914984,5.297164841593439,-2.336280429926589,-6.426297830276779,-8.691680151759906,11.515951357353565,-3.8973558373328885,-7.918344453202242,-12.433967421959366,-17.493922133404382,-11.83908788685285
7.660704873350163,-6.9626848060413575,-11.492145664188254,-0.7028375046891773,-1.4965771741614384,-14.982534336823273,3.8924950791813364,15.222499381803036,4.837749104818624,0.32658305558202927,-9.357335866172953,-7.303959395748874,1.9852984833183571,0.583880199427073,-11.090288425408367,11.156992692677672,-11.41046790004523,-7.074457148984065
11.898908580932407,-9.7569567067299,-10.831927570300671,-5.077435046039045,-1.6485058097087393,-14.80245885313197,7.245716818633545,6.016554296968568,8.772407353122858,-3.0668891039410378,-14.340138790247064,-5.132790201023066,-2.466019185304553,-1.9661411188616675,-4.693103615156737,5.9365703720984,-14.114851581391584,-3.9732070695140127
8.616782955375285,-9.52291681708481,-17.888517404891545,0.607447632024269,-4.826542074391881,-15.696951790434394,5.519212593231228,-3.0936295575068797,4.112644050835796,-5.58304775357267,-13.07376747429693,-3.643032457492719,-3.4005444800371603,-10.473223648968174,-2.1059093348797355,-2.1182333652037464,-19.064102995335915,-8.004113948574911
-0.8184669624755045,-7.920742824089112,-12.153784071670719,-3.3750864495035326,-2.1438405697067697,-22.06062688663529,2.131002786654463,22.658105269076728,-4.161011219985777,-4.194551711608424,-10.343419702327182,-5.56909767376591,-1.9901894573933738,-16.343523865960407,-7.332681608634694,26.25103553138988,-18.2503853704087,0.1691130933279723
-0.293316309389267,-8.270793660957246,-14.819450371796592,-10.970291539445414,-4.928708222323136,-20.709703299666884,0.8897389147014327,-19.268865977918953,-4.6226170782254705,-3.589019585547633,-6.930325661010548,-19.21188955675208,6.452598090528473,-27.487354888735233,-4.552874982686839,-18.429906804302384,-34.62336500029055,-5.918714055243578
-2.6009302321352403,-9.40117186581585,-7.428195478667792,-4.892782414292284,-3.7083533951812733,-23.656095766206,-2.9898084749544718,33.13965039171259,-1.7644428172540731,1.4093635015074675,-10.061126151855317,-13.906874523255343,-2.9749249929864483,-14.41211387700877,-12.8097570098614,32.98218863523846,-13.104173181269239,-4.392201054032917
-4.518603413352481,-1.8390717055930468,-6.972457118107515,-17.662621943176923,-11.959553439918668,-12.442502704678814,0.9417387842261506,-29.885168251825615,-1.3483073660045137,-3.9457647836959526,1.162967398380042,-26.861649428854626,4.102746338392833,-20.087239644634202,-1.2434898168514983,-36.117502489093525,-28.498734904979866,-11.364813446004533
-3.8978645856777203,-7.26450618316522,-2.1239272736636456,-4.845574367383202,-5.267882561585477,-16.36625605307961,0.7701365174752164,49.18014239572111,-9.038370909495121,0.3653905404095559,-3.2389388560416776,-6.219953184706701,-7.275878387361085,-0.17614975362414764,-9.01483500402868,44.783003443555415,-0.14185211477576787,4.023357210277023
0.6284966983538496,-2.6302429420272713,-5.2851276985892355,-16.735412446226935,-7.2665231133738795,-11.79419117660106,2.2571916589104024,-32.598723666575545,-2.95930989297134,-4.114523287121242,6.421140634671781,-23.369593843012126,2.6358815857950475,-13.664149230235235,2.4510071738466532,-40.8249858270365,-20.51549921973467,-5.3963140914196135
-6.174123827162406,-6.588904282995618,3.4661329044836897,9.950042275103481,2.747956600679876,-24.605616267813645,2.375514667197433,49.00193506726233,-1.8614196228099706,-5.959588626108195,4.45925290895855,4.014902409446143,-10.986895882987968,0.48482116454319435,-3.2723077816302344,43.29417256741089,3.3503987446628534,14.869255995197772
-9.071114386225375,-2.2456947092764175,9.48120686817687,-3.013097763206976,-2.3733043408357704,-13.881943839273834,9.426013987686263,-36.4916694674112,0.505387121883591,-6.24407660958625,14.60626163966436,-13.716272142435612,1.2705864038955816,-12.124626510011293,8.971999322963407,-41.43886287667246,-19.170633821672176,4.174676005001588
-14.89851134809852,-6.983685121681488,16.1781294747482,15.567621750724834,3.5419593307774004,-17.41672353199293,5.146692872601695,42.37083763300643,-9.238007139906848,-1.5500003144982326,8.053166406662196,12.598395803494398,-7.76037920840152,-0.4175191521057773,-1.5393562501009028,43.36002091501047,7.235265646296366,12.130143846723021
-13.206929945116393,-5.665918560601443,11.93564502931483,2.8005773898863326,-3.8230386700434273,-10.697865360268866,8.092522726141656,-28.184857529940402,-5.602938234309104,-7.404972350875488,11.362905529398965,-2.491621030672158,-0.5792394898897282,-14.687616204795694,8.163024204053198,-27.509407343469253,-14.699102856986736,-1.4992627955276845
-10.637088797335327,-10.597262649295024,13.062612503074003,12.983433378999036,-2.3000002020964088,-15.210073534690547,0.0015070360038836883,35.4393278595716,-8.316274579263414,-5.156394183218844,5.78522596485667,12.499137233127454,-11.56153772965476,-6.10606912560464,-3.1324324783812183,38.730800492438576,5.847869194618194,2.0566461854082743
-5.040508774028945,-4.785262572504919,1.9806560100611534,1.2912472017723484,-9.760300437425746,-5.757651082700848,1.8700609390923089,-17.444019406763402,-2.3387279990631074,-6.4255645801324235,5.675848622309391,-3.4654241777548522,-1.741854111656215,-11.782838925955506,-3.1010210175945754,-14.46619593258209,-3.4882923806343187,-13.237767450125695
-9.796290289110978,-3.855148325252505,-1.5833426444135386,8.642571700263774,-8.625554711435404,-12.907469269529296,-0.0715558051431665,17.562756777225335,-6.4205872914447895,-5.157729165280681,2.6362409890778995,2.349865909193785,-11.159880294737915,-4.569091815748324,-9.223483497094765,20.91063259870761,6.609483551793622,-10.467809509222004
-1.8571955503165478,-6.342044984430582,-0.5590964198777923,-2.5608638205997014,-8.95451863103677,-11.17085515706287,-2.2100055813245767,-7.49181364287341,1.7041107278745242,-7.114717899703177,1.061034527795335,-6.9696281311318575,-2.5103774150130223,-16.789555939406156,-10.171528563664666,-0.3557310942048275,2.6445056307754164,-20.20028373743103
-3.879808020798341,-8.730264693825635,-7.153802651540761,6.451022286560376,-12.016750982819024,-11.387813795447423,1.0212041394131655,1.0460486364246608,-2.7697003719888302,-10.148081535450768,-5.5928061895306165,5.197735017425188,-12.610331007342133,-14.068721098633493,-5.847504896942163,11.189245000497934,2.390397249174349,-18.02068573778137
-7.172575455776368,-10.726824636540314,-3.2031005636684604,6.771497327071933,-14.88252750144525,-9.261399192516068,3.8602681400756707,9.679745506733633,-3.82615050478222,-11.718737569388285,-6.582896593038091,7.796781338354512,-9.135046189250806,-20.723377075180753,-4.649984499663453,23.90449471695156,5.3587856145269654,-17.601029379078465
-12.419087547805894,-5.593330767622472,-0.7188701658951144,0.45133182557916784,-9.836894412905496,-5.475208807386553,3.2797980373687032,-14.110743495109647,-8.20362189071799,-7.139130885490324,-5.620197671886522,2.682993792409333,0.39581437483503956,-25.132263423639998,2.3078806832347514,-3.7144803124544508,-5.442858888226426,-17.0857475191642
-8.584004065378874,-9.24798438353329,1.2754888772136974,5.557165306785327,-9.282392156497773,-10.380955104376481,3.772051548305815,34.94963274271984,-8.968411978521829,-9.300097229649964,-7.587563327851987,14.856738271169021,-11.166617288662055,-18.799165517932686,2.6235513927038605,46.40056844405034,3.4819870793424306,-2.998001673752041
-10.706600296865513,-2.940488670536998,-1.3216246910828833,-7.891971212769024,-12.926054687329062,-5.130685006988924,12.075414523070965,-25.759092362487543,-7.976013672233678,-13.123445767980181,-1.0590049041045948,-0.7022205268781316,-3.880341191742718,-33.560513539444074,17.09812003537559,-11.397682837915628,-19.918332163159434,-6.295224922946384
-8.72811122994859,-8.93679732391086,6.138474862322047,4.245177712510996,-4.6543617834971585,-11.892695088799227,6.1192395821200325,47.419150544190074,-8.351469336838885,-9.429358157475393,-4.003513585082857,14.503085100427903,-17.00378408683275,-22.149966287283526,15.652996406619582,60.4920872215178,-3.670140936122926,12.574038162628607
-3.332122196901482,-0.3810204128798267,8.518863399560752,-5.786066255048226,-4.194183573427936,1.4624227692999892,17.935267496642233,-29.50433892292202,-5.407200963397208,-8.276588412312512,12.68095011628819,0.022493794209159423,-2.294037025277529,-22.263414616941528,30.22225527515774,-19.96563586333942,-19.35664014065295,16.20694384107971
-3.4054676472733254,-0.4180306359490591,17.929127141572486,8.206364271494234,0.8570066049539387,-7.253462418175513,19.984017671351207,55.68224262778405,-11.25276068384058,3.2256808608192777,12.665739702190148,17.673333250731005,-19.61530883284103,7.896652942760213,21.15684786003236,59.8316125159687,15.640542462750085,36.928274816840926
2.282513474487722,7.45634211120103,5.657917781208429,-8.36825140970378,-3.758827356596418,5.026726609826712,22.226581849459336,-29.83867479764204,-5.184698781956529,8.86626299153231,9.23234055747917,-5.885382809807055,-2.0720610552392458,4.559732611082076,23.41823880946898,-32.2501040602582,3.4682768343939827,17.120035044736323
4.1613845919244685,3.124615671468269,3.932317699730808,2.4987401375542917,1.1968835908111655,0.9977480487155841,15.776108062841312,47.62941549058355,-1.9493240536529761,15.871831462321495,-10.021747711960144,9.816298404022795,-8.64958167906976,25.246235679653523,2.435581751717409,46.56791944065582,33.58098005347543,12.837837854496609
6.137478265984667,5.532404218367121,-5.314326057399215,-8.314548801586028,3.6145742024688152,8.003785097403094,11.765581221537108,-36.430148110679355,3.6292348470318885,14.2813000330627,-9.158444266882766,-10.71108298779324,23.055412916042016,11.068548995837297,-5.560108125012532,-41.610061376132485,12.324808007384062,-15.079000266585016
1.5700921017652707,-2.508041665751954,0.4769542842951804,-4.577141256318955,3.8848702637189945,-0.1274196465922497,4.726170579916022,29.51083457188807,2.9571090541966143,14.348737238182178,-21.38134843389757,-0.9626343944410669,12.47527541664599,25.6995250656463,-22.834802012708487,22.654457299350764,37.65040434321514,-19.657036292399436
1.7875488506345665,-0.19561023835390223,-10.823207151020938,-16.074692763066345,2.7890288142047517,0.23732484347567073,5.790861405530966,-31.50497810256249,11.952523618320324,6.503692956337557,-23.54554364010281,-20.216634236312633,27.677439645606825,8.200741748598151,-17.454425358535158,-41.111519075018236,17.857083008583277,-30.193522564258643
3.078880225670005,-8.331386823402458,-22.90593630692477,-4.818387354067999,4.8193013145662835,-5.452965877162731,-1.6421590197878553,12.850187322789282,14.50196596012611,-3.687330590420996,-35.76849237039398,-8.022973257988998,21.102575764172094,2.908822534550797,-21.353065689236136,7.916031130919732,22.281773138227045,-26.766210769395666
2.0260920865066865,-8.555702730049084,-27.274977520037737,-12.605782887700192,1.0888291248242643,-6.065289709295043,-0.7757560472882243,-24.340573827284235,15.293023281256477,-11.341432707408208,-39.69050769109435,-10.671453933988714,23.41520446919813,-12.735159327842418,-14.608550546210243,-26.164285054188475,-4.838159499611422,-29.199553268384083
-7.132594560846188,-5.653773475386558,-29.106157936320535,-11.79978409884902,-1.07806123012981,-11.463057831680773,-8.016426409470315,-12.801825963514148,9.24750989848941,-21.536799507725988,-38.241290240493115,-3.1617302216290075,13.228271674090639,-23.887214367577116,-14.799279716099951,-7.901149025209781,-17.017693402196258,-27.72770766287159
-8.771912726414755,-13.688299700107244,-28.692416896874597,-16.65846634197374,-5.978313996113556,-16.665704106609777,-14.281996370039089,-16.987667032420603,4.764009397130609,-34.175754158686736,-37.084957635085395,-1.3143932686872652,6.752953987139876,-35.23489939707383,-18.702554375385006,-6.729181719866743,-38.671324538236604,-26.159258009261542
-12.071660538339717,-14.299612146230578,-38.63156822003496,-13.021502678340685,-11.756435480213653,-23.919334389503078,-17.32633368403633,-31.91754143576668,-1.6731378021357357,-49.55124804042952,-29.971383489289902,3.1714257489486153,4.184559410275032,-55.665052317801845,-17.23621134284771,-16.202940739149522,-62.08415044170941,-23.029271050309525
-14.297390968126361,-16.765181861567463,-27.08715320459652,-9.092188738197313,-5.423949300011495,-29.903562611593472,-22.520609494887378,3.3469918317381353,-10.45454245698159,-50.3778365361173,-21.392793176258756,14.983257396907144,-0.824671829419791,-56.2709638733314,-19.677742648865937,22.272248776856888,-60.00971863444119,-4.567939009392858
-12.324025186356543,-11.221562694819156,-28.33700249762362,-7.312013553646535,-10.809346789244788,-24.754933423200455,-17.75525909746936,-45.375790717098226,-13.474590790100141,-42.90558761354535,-14.18123088629042,11.366805357524932,-4.46609367604042,-64.88507012461872,-4.151821303579009,-25.192344922782517,-72.68307304269655,-1.3420689604916927
-12.596942078621096,-12.415058902351767,-18.94322163583706,3.940248357660122,-6.3302698000223625,-23.80568778838773,-20.12038170690882,16.7413142566599,-15.518489574410998,-31.04078068067905,-15.563339577794846,22.10763557376762,-18.45863986067502,-52.991289400618996,-7.475422246810811,45.41032646943613,-53.71684002226779,12.039416201169878
-14.04187374572647,-5.404021658584961,-22.538946258500847,-0.14051465672723662,-8.783851742908597,-10.746958279120953,-12.135236134443257,-48.87954035656102,-15.5119800229278,-33.82664207255061,-2.1988900748807545,9.412155850849775,-14.579227462141858,-52.42602180772186,9.512201278243355,-23.052538521425145,-68.0534675973347,13.701246337206655
-13.045450278113293,-11.477823680065462,-7.678345971744877,16.579015535888743,-1.76359406787523,-13.215860002972107,-7.8625308520406545,27.49233602987878,-24.783335193925016,-32.12221894652485,8.4314108202217,32.85153892622097,-27.496357234391716,-30.376241907989428,9.212812120808472,53.31013812854966,-40.69186007431727,44.36676162730286
-6.677905210612508,-3.5852562979027316,-2.193838105486977,3.5120837649149728,-1.2853676419755091,-2.4033338050238466,3.2447765932546835,-53.26870205037957,-25.949451395042995,-32.17756813180038,33.51535338142233,15.666750296358988,-13.45936358961532,-33.61998097193718,26.88084708780435,-33.51412943039217,-57.18024445362378,47.785165089693336
-4.412004372006414,-2.6250612693308835,6.219491690000897,21.694731781006887,4.36975517056262,-4.96991653495607,-1.86053354027581,35.11186802080977,-34.24490899713764,-18.660383149048393,34.1851842966224,39.59726567925675,-34.285596987728134,-6.296983957201856,21.890678686125277,51.34307537492671,-34.70490165894143,75.71511904501955
-1.6577983426532494,3.7076512414531617,8.38185535643047,1.692260456175326,-0.03283397576600722,5.940296877730418,6.021210394716321,-43.210909067778886,-32.48191751344955,-15.301450869867013,44.13285036010403,15.774486734638284,-17.220040907262337,-15.986378015753806,38.28593988758626,-36.36175673568938,-59.595316485548516,76.49573763633606
-2.9075069043676898,4.572886565911896,19.332584751925012,13.232250313794829,5.136070093670764,-0.7278281461880614,7.7490990928592804,40.57659094447197,-35.01613540815305,-3.741069500542679,47.8307964543325,25.15662318164469,-37.16618082393871,11.922380592327286,37.29649977195921,40.68123244444226,-15.541160930734454,95.83090048687548
-2.9852329718524917,12.470849799715566,20.223776208815508,-1.5963845217739343,-0.6316583592134293,10.7684682497515,19.4366678565307,-26.225702493902485,-29.054368297215685,1.7627801680199724,55.72842539948886,-0.32382875537373046,-21.36899801339806,9.850167119523121,48.41498750895352,-33.54838136193915,-9.380041248036449,71.2197096547261
-8.141034501539847,9.62784642948861,29.903413998166933,2.6171591142016153,-0.538888060885637,7.518554713459874,16.571832510781707,37.44120024276452,-27.975695095605104,13.61268297799937,38.82141201225393,9.548985145681247,-25.78637413253913,19.985157792838443,36.87523898429792,29.918676761493305,23.537429896989366,57.15523835682302
-4.800447686739128,12.645706269034555,20.734398276416037,-1.7643052515463706,-3.17949990073781,16.183021415875857,24.74092999738241,-9.246674415733285,-21.135389624285864,19.11318708338056,31.68061891422739,-2.843064766147487,-11.15989307532389,13.713668201466525,38.12700497388249,-12.183003003271104,21.100894980858904,38.10995858395322
-9.076961248567855,13.418850641572323,18.889044158904287,15.630733549291818,2.3841735275456415,14.691246167805978,20.310796661918122,23.94796501411978,-17.12729953659494,21.487054761306794,23.466058508890722,11.035853367604929,-15.478410057638293,25.89954589446492,33.02935925809461,17.883686276431774,38.29162868603702,32.83420756540019
-4.954666969809518,17.806757443362404,19.093874534593656,16.032106679702984,7.94888282569886,18.180205675213948,19.394969532663893,11.632593944447935,-6.869220596300687,25.617232307237288,20.232531170934013,8.997528805983311,-8.956307515331517,31.933075456079948,30.76212002014017,3.4177640170960384,48.0584056975961,21.991802334878802
-4.054796703045033,19.36402901773818,20.567668397970063,23.072941279516698,6.776244954946451,19.716227210932434,15.450390388684893,9.569795781320195,-0.41986476511227444,21.93332287119496,20.612847939569274,16.823535946529837,-7.707104633736795,32.69321234099944,28.29788771688254,-1.7713370883047785,55.08876791031018,15.348564964403
-3.93586737590586,15.453919252568848,17.939290981428037,27.47570610742106,3.9444636860392026,19.982941556301668,11.30914454662024,28.2089625244426,0.7559379383109164,13.072149479373476,18.063958535344987,25.041003012482154,-6.457274402761346,28.668281657321295,19.288899467295465,21.945605591501092,55.08574674400661,13.685803935566092
-1.3751336957266114,13.010140226553773,11.794729659828121,27.384858239559055,-0.8394326688437355,24.253893000146576,5.408719526319179,-3.544726839639474,4.08021259846306,2.1588261858628393,24.500124472248302,20.07543117363722,2.8987857437290163,15.952010746802838,20.53227667253244,-14.104620145132635,36.03741372846067,8.409683209677032
-0.4741806278032463,9.688918344170668,16.392055395086587,25.632426371658774,-2.6925553236732194,15.731976228360963,-3.911054354608769,42.04506558906068,2.6192971889584893,-0.064226924794335,20.19449836950206,28.489650849441347,-10.108127905614301,17.591663701680908,7.222943352053126,36.46695299096534,43.45225089003616,6.551603737877027
3.5522614202466993,7.931708900770297,5.656692416703259,13.038537286722457,-4.349318978660424,14.437053579543853,-7.079706094041185,-23.01279617638109,0.08422398718741597,-5.706498685800686,18.23323245075827,17.568242272290227,-0.5554426133589931,2.532116987232115,3.677666785534825,-25.659108829005053,14.926938940838152,-11.224624761192402
3.4775601610229803,4.7111333559097925,6.639875515154015,22.70911940913001,-0.438545659718762,4.060307637165211,-10.933264433044728,41.91037332311622,3.0181003027475395,-3.6349335262164146,5.725518992574172,32.429002672101774,-10.82660428129722,9.152900659561254,-13.248447428066324,49.52102191725832,27.415755303879905,-6.832442723121222
-0.5029283327164285,5.984324864052065,1.7632521459963075,8.452016373621106,-9.90583444677092,20.14918053480994,-10.198197704061712,-43.17015315966482,2.241137791077403,-5.373069359810791,4.7420201872709935,14.086576432403515,2.047807097438902,-7.859138226981933,-7.42204534042493,-29.891628305785083,-6.289682237463364,-23.827162655921143
-7.803216965426551,-4.94817953856998,10.460753170996416,23.29533604526059,-11.364137504735542,6.550495914916512,-7.804223749855764,41.574737034258824,-6.445906696685059,-10.920828560689195,0.04814045962758762,38.32328750999304,-13.397822175949536,2.961668103766261,-18.003890506655377,57.39691627335355,8.440957779014392,-14.454111315668118
-11.48956551749842,-1.1328333866430316,2.9468083019967173,8.742047349700364,-16.825353892382978,15.999457139491067,-5.606824582257311,-42.04369651797905,-1.0700015628923918,-23.891467710158445,3.4604772399139243,20.5674487806763,4.75153148974843,-15.514419414495261,-11.106756657138753,-26.606773271315397,-26.83134388881054,-28.030410398407163
-8.241570187064257,-1.7105439797926585,6.272651879442615,13.132687277092002,-8.02748299757202,5.429023927182809,-18.840591896646142,41.624212693341214,2.938970646871045,-19.772812078728496,-8.458817222067935,34.74588364358476,-10.98561303034245,-7.622449848155364,-26.086722370606203,64.87994697533355,-11.030841818002308,-19.73112131588966
-1.184238102903497,3.963391698911133,-7.2964741173870005,-4.744354480489271,-9.970902869949345,6.18735338599565,-15.571428161822993,-29.301433201795387,8.901413764058532,-22.002635224232556,-8.365566771618116,12.205113229903155,2.4776626505473462,-22.972516047203026,-19.48610228036188,-8.675455170634475,-41.327001495818934,-26.568492897731097
2.4557983883889065,-7.4512173343409245,0.5213044712997768,4.623352826583604,-8.983526255172084,-1.745369312619999,-15.2332063984451,42.937829083739416,9.102407195253484,-25.112017536362398,-13.447525701925468,29.606374394943437,-6.910197781330052,-10.001292047063233,-21.481146728536352,55.36836367434824,-33.2458901722115,-4.694166296753265
3.0692104872509205,-1.6764958206823453,-7.4815714850705755,4.711771415176875,-19.030406162352772,10.146937202932564,-0.6381462951273298,-11.583980612361131,7.545959315656914,-26.46411182016298,-5.833320519269401,23.374387620426077,0.5975259904116363,-15.29148075009941,-0.6260716297621185,-5.785569477546158,-55.636225533721685,7.805372218270319
0.5583804572391342,-4.591736873153691,0.7266764684685811,9.778888965927004,-17.259627387961018,0.9457003924798708,1.7485234132474878,33.4061351739975,5.11103091046866,-26.1564855992224,-6.226385987852046,33.74404969506061,-5.956648703055076,-8.471485917862246,-3.5036268298142,36.77249304240415,-50.09868828909104,28.02025843286254
0.685154681735276,0.11190968117316802,-1.0261865192358484,5.56663369331448,-14.608852654489965,7.370250429947438,1.5949386525687634,8.081379889968211,4.434422125958992,-27.509409865011975,0.1196019133856705,28.292897362626242,0.08786300175072626,-11.31894469894335,6.703148380724443,6.965649634367494,-59.11440314696289,31.73140294384578
3.2542570551622845,-1.5306058901421067,0.6389892624928512,7.2119143119778055,-10.68744668779062,1.3928350586110723,3.588691423560395,15.958971625899487,-0.6362635198737934,-24.76098387363892,2.6576116407298533,32.3141904922436,-10.175607345890528,-11.040654452713722,10.560356903063806,20.908956315721642,-60.612727044368185,42.57200792222428
7.582122379147496,1.0277589841238848,7.577739982131418,-0.1292859023185633,-7.253244381085656,5.0841219730905385,8.315749475456437,16.41330403326332,-1.1164728564660074,-20.93850165122826,7.344768880516154,30.768541070230313,-12.918547723238465,-3.144320739788389,9.825831795301482,28.79696776834681,-52.249878921815935,40.91289558450333
11.129687949472826,2.4158347521685144,9.731357294030817,-2.2966340020693163,-4.403898957420573,7.897092901392684,9.428381854920275,-5.692559039301626,-1.4984209738660308,-13.893395219631607,14.27873407258248,22.09332811448405,-12.144901276119752,0.3581924346188714,12.507502067136425,6.508223533847898,-43.791636039907495,37.887075245713305
9.404735765758387,1.7547074188906124,12.666371046812731,-0.16908810296465315,-1.1628284407272274,9.734106986784742,4.094537114842369,29.134796490143856,-4.321168333075724,-9.192056365439216,13.69373508058285,23.476215746393315,-18.206363517633875,14.701530129548612,4.347332597047584,40.958112941969944,-15.804109960063021,37.596197921580824
13.051997007093462,4.610873339527943,6.617045649907903,-8.883635394738711,1.1027634074382844,5.9076087882453745,5.009745366734781,-23.931044336403193,5.454617603738612,-8.396907898282276,14.183654109804149,4.154916786492393,-4.832976698745319,9.025883549968441,3.7049741301370553,-19.8088077554606,-8.326974660722545,12.69612133820263
11.524472653719876,0.6326167190927068,9.943074427782694,3.7867419543175282,4.639009203525184,3.546628607113608,-4.916073126938069,36.57785013665705,5.172381401975786,1.2853167256579887,6.080375175202292,13.34883245203721,-16.16601303494734,28.156191926514573,-8.56049409989634,36.41773002856698,29.71476867865833,10.25790029484315
12.146529498238998,3.3943675807792237,10.63259327129795,-3.467215427174473,7.395100957586463,13.295874560206716,-4.393505317990403,-33.482856583767635,10.750374650394505,4.522456362777216,10.282654193651876,-2.8492102837231705,7.463433664262114,19.74794239833052,-1.0032827226490113,-43.39347972403261,26.054394250235184,-13.469109592424573
7.496214897390996,-1.4595582554598465,20.013937710740933,10.077735994382124,6.636626425575113,5.858038204505794,-4.946137915479754,45.87159046423,8.809526512587887,10.787417255632121,3.352632322786901,13.17875425600437,-6.60196769982608,36.24337655217638,-9.854415496035893,33.63312382238847,60.282963246437134,-14.636560594530714
2.163477530729764,4.918786146804591,9.961716005499536,-1.575232235702928,2.5589054624987844,20.393886079406386,0.9457026460015453,-41.28158392921645,10.971147193476058,5.919933842286092,1.9897812085301254,-3.412114797005806,9.8029136123129,23.63779843856006,2.3866784573978705,-53.210480249712916,41.481123582807534,-30.354372285420816
-2.0938091377135013,2.6072243513342044,11.33581120567311,11.379295826095454,2.7792460379879227,15.691863725236912,-6.249503121929397,42.56278447726885,8.055447765271174,8.865715696079402,-6.208434744394978,12.51579352838769,-8.752579653333973,37.986784401560584,-10.765085632062355,36.3152720022637,64.86517681355548,-17.26248703030828
2.829980677885238,4.496580064622657,4.507054460954454,-4.4774938137978655,1.2428723366070962,25.443902496805453,-3.5821567660340445,-39.416835524262666,16.2736512063061,1.8511632468990147,3.856020432114552,-14.62471349570258,10.779571240896328,23.332481951212056,-5.559039732870797,-44.86523091626194,38.636852999053524,-29.463272459900914
0.1377482057432431,1.2117116917607869,3.6358547676477,8.472436847139097,7.813219991110042,11.368178390666685,-7.068097151426603,35.44074425321483,15.020011887969012,-0.8655832389700322,-0.629857815945364,-0.06681932081155395,0.429608705496932,32.89839113266963,-15.296471830483155,29.52251747573761,60.06326792952551,-21.155228595627285
3.696924220838512,6.81533471629245,5.890174105704652,-5.142878001648182,7.255685196032259,16.434106322971708,-1.3750275465929018,-27.107232195130855,19.529174195937873,4.133608343530515,5.431965270159653,-17.8351927684907,16.546078740039274,17.660357086787997,-2.281491838674965,-36.71741221101964,45.84237665967494,-33.354586946125536
3.1558190524799428,3.240767556825496,11.172390957522467,7.9976622014134,9.043072151302951,10.367795233716077,-5.643832462947885,31.82991956584628,14.468909196682135,6.790102878618864,7.099850432891396,-2.7922227400024795,0.6320252929170183,32.013770750064054,-7.237373975589378,20.188532420374703,63.84631673183942,-26.60760160580537
2.7137453854234788,6.308563897340166,4.8338803154078525,-0.2512323183190661,4.581502855456931,20.122788919767444,-1.3195076791705949,-13.434822275677895,12.046469984408489,5.932120446216249,12.381726818764285,-16.755359969589232,10.110230170600065,22.735192388019993,-0.6714762378043275,-22.22398450059419,55.08982198352557,-36.36401377798507
3.0543363007119444,-0.2901196493135316,7.089830205296265,0.3843157349817252,10.375138222564443,16.79240296486643,-6.4687004747136605,10.148073806697582,10.699367570140671,1.8527479969209253,8.289108947665158,-10.602861923104225,8.163756221561489,19.024313884543602,-0.2598440141216245,3.9186884272738007,48.28427762712787,-26.19746831463044
2.4197803843583623,-0.7347305317577755,6.611978407357857,-5.037348216848239,11.677661999307537,19.615218001619226,-6.540371860029168,-0.2549761714918892,9.158085432752134,-3.104114280635766,6.833892351651729,-9.628183460712977,12.566343272307176,16.486563441509702,-0.04534845276298016,-4.510026291808774,27.70679784868934,-17.49499259571952
4.521098646394245,-0.8847350775986449,9.357482542021309,-5.773891213610186,10.24691567183578,13.942578012560471,-3.6829553362765477,-6.362121281754391,6.543737232916905,-3.1765446704669147,7.918412357495027,-4.0656500227946,8.86467711011422,6.625743090302362,4.073643394005039,-5.41964652821984,9.666236354516869,-6.936206093200868
5.256691830445721,-3.7675257192501777,8.197362904924839,-1.0440678361015525,10.379841606862346,3.9737700265904907,-5.904347730555575,16.924694929347638,5.297798993420663,-4.9074961638645345,10.077795539173673,-1.8256371887685106,5.652670369796446,4.871800105433334,-1.281969820860926,16.131458177709682,-0.9545079635165639,6.55314336406013
-1.135221988333964,-1.6681440434170272,0.006607010951637626,-18.48503302171895,5.631030375943818,5.822324594035802,-11.251355285230662,-27.56396126326012,3.1741743858451814,-15.718840935721317,3.5462602070294427,-12.283385699730385,11.035947130506845,-4.791111657323191,-7.030007990799897,-26.576789061063984,-28.76517292047423,-3.1992018754942766
-3.423979066819043,-7.67273085701124,-3.105190268516356,-18.057125698321954,7.23112312125083,1.7145356891444372,-25.388086876088103,19.54936026719058,1.9307335825173744,-18.715673462229148,-10.894939704763498,-4.579146306253316,-3.5015209634168816,1.953807239919139,-16.393165013488264,21.04781093831214,-28.452553541290655,9.510596962868089
-2.8791075454094606,-7.230287079931667,-11.392056636675846,-29.44830909199075,-1.1287221414170423,4.638884711423195,-19.993756708259845,-46.03531409114914,2.6417417105679344,-30.304377278176375,-6.292276174111912,-16.994848612348555,0.12681659816208413,-15.812015273339398,-6.0312281845810976,-40.802481369818416,-65.15434806264817,5.717117645319341
-0.37950577920828965,-12.25506178455399,-9.814665160948838,-12.423602263870809,2.1338553592297274,-4.643201873389476,-22.021858801170755,27.150715846825126,-0.3569210551483377,-32.027522438488674,-10.673529104303165,8.185137609295904,-15.38426499583624,-12.873025561304253,-7.389975703837805,38.26677679229667,-59.572456140687876,33.077353141396586
2.0240337899326946,-8.489030264791097,-10.970829406486093,-29.28864913489005,-6.71197545851493,-0.9360264931014157,-8.13214990041564,-54.647012331428485,-6.381622331384435,-32.67418832952188,1.7429362319070822,-9.411600587298796,-0.32694405174546626,-34.93302715536463,6.777117393841179,-41.94431037036997,-82.99701178887173,27.918472372572538
5.991711610196983,-12.338698802590473,-9.196365550816283,-14.319793962020336,-2.470518305127796,-8.556366451176544,-10.844613014928115,21.466921328093722,-7.0337691823063775,-35.759936291604994,-0.488681305753504,13.419240074370174,-13.198174934449126,-19.588706355338836,-8.940781222407296,41.32308606887602,-59.25496046402754,43.463958930047916
5.371107653257174,-8.178835506557771,-22.75323610589102,-28.650783049479713,-10.337471251020107,1.50012647071176,-14.143333218550008,-63.35998353130255,-3.0945971815850566,-48.60897954748857,3.4327080092442506,-5.940878288907641,-1.1650882623191183,-36.47001523914162,-0.14829206925794036,-48.55726595962477,-77.89843169532412,25.123151033671
-1.4979433579326793,-16.517572938887426,-20.097956097807327,-16.12841435505635,0.8399832346035971,-9.927302689476669,-20.860338358947686,19.78356374254715,-10.872923540346187,-48.17397425683252,-6.415083803871563,11.220094851299732,-18.720671106798417,-17.60715115279229,-6.103807039919606,32.26753522805218,-47.910392570501024,32.27196941231564
