Fp1||F7,F7||T7,T7||P7,P7||O1,Fp2||F8,F8||T8,T8||P8,P8||O2,Fp1||F3,F3||C3,C3||P3,P3||O1,Fp2||F4,F4||C4,C4||P4,P4||O2,Fz||Cz,Cz||Pz
-34.149349244754696,-15.750213732116617,-6.4254832193994815,-3.0557993031106347,-30.788294441660142,-15.71547830162471,-0.39124363560785014,-5.145922598531653,-40.23542701060413,-5.459490594462183,-7.155463226916538,-6.530464667430946,-36.668386783819926,-10.887841632386897,-1.5416168948996969,-2.943093666326055,-13.02052701216347,-5.351610502202835
-41.038805050894176,-49.08255776347974,-49.9099276979514,-7.907682686678738,-96.67554463245398,-8.150498648035143,2.482735605958435,-13.065558872812087,-98.98506710655772,-17.329727572236223,-16.53753080507781,-15.086647715166816,-83.05139860310823,-18.349643519317354,-5.27739612981828,-8.730428295108503,-41.02534113037898,-3.125572180775121
-69.6105303921017,-38.7620485373279,-35.09280765940497,-12.95473494087686,-99.08563939956537,-25.491687097459337,2.4263806650876467,-11.219190517256934,-107.15021401401361,-14.063500375145317,-16.446688794225146,-18.75971834636396,-96.72140127659115,-25.226582192223596,-3.93565418672679,-7.486498693663281,-41.97941963058822,-4.513807738635039
-85.78191925426137,-48.26625465406021,-44.2996975731425,-11.946858784972147,-128.93803389374247,-20.179738099932038,3.9318980517082007,-12.985939868006064,-141.099312206827,-16.754865168815986,-13.230676490363757,-19.20987640046813,-121.72211694012526,-26.342755259680814,-3.8642330876543802,-6.242708522523852,-46.05896504778492,-4.047484410786758
-107.61959526393613,-60.50510806620183,-37.58868048878733,-7.716126343839198,-132.1304366550196,-31.082443487227298,-1.2040116127096745,-17.6822141363268,-165.28503227267504,-19.544341079998198,-15.776333899856045,-12.823802910275809,-137.83847094735316,-24.432535875896637,-8.676557661748202,-11.15154140629826,-48.674022805165464,-6.218858153827873
-117.7404186997919,-73.03720062848451,-33.80779812432074,-12.274436868234064,-142.9408083200631,-39.64484117804361,-3.117965400299205,-20.620452602928005,-168.86744913341627,-27.60777108633318,-19.88436330593656,-20.500270795187653,-147.2190071469609,-29.163995334666556,-13.880459740154894,-16.06060527956507,-53.633202317962315,-8.391169105670029
-119.17171378672136,-63.20597079412786,-32.664174114552196,-20.641242360086153,-150.2362574336056,-44.69504405955389,-6.30226775148725,-21.703007713342092,-157.120160708734,-26.687107072680856,-23.60159446265168,-28.274238811465285,-153.47713129276232,-28.622842949625817,-22.40575874200238,-18.430843973612216,-49.119872891689944,-12.419912647206825
-115.62440514468385,-68.12139272725794,-38.552502492541144,-15.238145863788644,-145.13001746677577,-45.74476636565931,-17.690666126815465,-24.836198603989406,-151.52794548559262,-34.55603886856987,-29.564770354084914,-21.887691520070142,-151.14407493763224,-33.06309364304889,-25.65865999351321,-23.535819989059554,-50.46625388598382,-18.109770799636472
-115.69230059599509,-61.70888142084141,-36.335928030554044,-13.252905421524718,-134.36055707734283,-46.70031775245477,-7.4975971609175645,-26.11372451660439,-149.7470889255621,-32.75723388087668,-26.83620752882433,-17.64948513369975,-142.66134207799828,-29.398561053850205,-24.029880066458126,-18.582413309026553,-48.687785655407765,-14.523073340777422
-99.35548630433031,-53.14829472381279,-39.491312031656484,-11.56046862626359,-120.5647164942335,-32.52240336443573,-7.364215453416297,-25.340278110689866,-134.78521093668184,-27.247793716027505,-21.763641989275943,-19.758915044126944,-129.49385469392212,-23.29334355655736,-18.007792339116325,-14.99662283319274,-39.975767076354835,-12.206852042252534
-93.66507541404688,-52.01012009269006,-33.07711199967091,-5.570916463183416,-107.9418563688756,-36.219333538666675,-0.6887513464706911,-20.855685217448308,-125.19734423694479,-19.785536321951728,-21.378413379078673,-17.961930031666554,-120.43086058567839,-20.411538180237827,-16.08870386599043,-8.774523839567184,-36.049076017401376,-10.379839977291827
-91.49196831036097,-43.45040859068342,-29.593608917699704,-5.14767494980431,-102.25385772741566,-30.93522092935895,-5.049643557422083,-18.12878595865252,-120.69057306074345,-15.741615208335414,-15.81707177463884,-17.434400724882593,-105.41365897192637,-20.557776231826878,-17.784408516890032,-12.611664452217859,-31.82945737898067,-12.753025420771605
-68.90993044217849,-40.65298134874362,-31.384677221633858,-7.849294337710865,-84.84816307253108,-38.35007204834399,-9.020981265845979,-14.71814275705688,-104.27250343549257,-9.842489401203611,-14.357083817915218,-20.324806695708652,-95.7705894107463,-18.751458474719783,-17.723811990322588,-14.691499268000467,-24.973071155803947,-12.392702128063785
-57.26700464324376,-37.953714316353654,-22.532192302994005,-8.011618946984008,-75.54936103564437,-35.514303166694106,-11.821546567942802,-14.334754912811544,-91.66607971314195,-8.240572733732034,-7.91626052900417,-17.941617233751685,-89.93916502070743,-14.992529184515483,-16.59059864053817,-15.697672837342148,-26.026897453865605,-8.517600641922527
-49.33642297572445,-22.950098066069128,-31.7476150995502,-11.005817229515912,-69.47462853145748,-28.09204542054102,-8.666153415015446,-19.517728093498132,-76.42593465881258,-5.467007196359027,-9.190088532759598,-23.956922982984093,-79.13022144226764,-14.3591339353596,-16.338002146013544,-15.923197936880843,-28.936099017993065,-4.448075755099666
-39.06330709949182,-16.736226766772283,-31.882177440022907,-13.902149226195732,-61.05753487565251,-26.92328718697351,-9.80890690158393,-11.41912212945896,-63.1420211674987,-5.916365792748792,-11.440163752682661,-21.085309819609332,-65.10162559770248,-13.433193770788998,-15.208260701409502,-15.465771023776563,-25.302051347831174,-3.01619273164275
-35.52972525783292,-10.718240357178171,-31.62749998831055,-11.720061942439138,-44.73164602634584,-23.316465845351278,-19.449131358517494,-9.27751476587611,-61.67780568529753,-0.01816397318437879,-7.635108513030517,-20.264449374306125,-51.75971011301323,-10.456810231842088,-15.154605210825338,-19.403632440417738,-18.152084119029873,-5.6868076552928555
-23.01267671735413,-11.634542798806478,-36.45249614826321,-20.28010054968663,-40.126221615288735,-26.451382273511225,-19.227212235060236,-14.9484052746745,-52.697086046965325,0.9969848473736445,-12.423563107119193,-27.2561519074583,-45.94053532978379,-14.121462026380346,-20.18107765168942,-20.510146390687808,-18.912091306213686,-11.190359078535582
-29.539825511155158,-3.2739679945441544,-34.833630671282,-21.613231659583658,-42.2607675652517,-19.72619103466566,-24.86608534772388,-17.103497294231488,-52.3134155692994,-0.331790731051794,-9.00837520098638,-27.607074335287002,-44.81204093243176,-13.196447905623932,-25.01423316845586,-20.933819235366826,-17.03497407227819,-11.323585208835736
-15.16904589314682,-16.789352744527772,-25.696744609708965,-19.137466517549854,-33.1663072656585,-21.40285703810291,-26.60001536757668,-17.79360416373035,-38.65148260141222,-3.418516285716552,-13.600708366429046,-21.121902511435998,-34.89746866418282,-16.568560183602404,-27.9939617245869,-19.50279326270089,-17.989501759485226,-16.53585183874887
-16.326562442694623,-10.090227732873087,-31.99148117779421,-7.09098835826516,-29.640016609065214,-12.92637431688102,-17.885971397480773,-11.45223481296864,-41.20394289841111,-5.138115554851613,-6.4736775866314,-12.683523671794127,-31.72440495132432,-9.296101740061587,-23.065553369277865,-7.818537075735351,-17.1856953536087,-8.076859693692565
-8.695483094278224,-0.2667132163475969,-24.908879392672592,-7.446778201061531,-22.01382104112778,-10.89852055445243,-4.583454526420562,-9.895975260912524,-29.892226980965233,4.861161058662219,-5.40096988654207,-10.88581809557673,-24.3551846414348,-4.367488362390352,-16.479171764382635,-2.189926614707879,-9.74060158294013,-5.771116106630981
1.2788981636292078,1.1575626252000397,-22.61334935010121,-5.556164124726274,-18.10037874755795,2.161480625524465,-9.446753861761241,-6.6794134912641905,-18.58374484920528,4.21572073978259,-0.6167894484687437,-10.74823912816936,-18.746927770125303,-1.6849979583388546,-12.141193131987873,0.5080533853918485,-5.3222695081653,-4.149772988085919
9.592732744042273,-5.719756486708681,-25.300275033641103,-4.739498033922344,-19.852880891702437,3.0111306615811984,-9.916966050291482,-5.1229109013215695,-16.848962528854443,3.37497186357656,0.5545550947370188,-13.247361239752175,-21.7356703300944,4.0249524196483115,-13.469703290185917,-0.7012059811024507,-4.6142352408043426,0.49817913252760526
15.171905968894372,5.371248286419533,-29.94233308291323,-6.656949921820536,-18.677480223889685,17.041488228570746,-4.626916304842613,1.5119189150732915,-5.253993997269582,5.073361806993354,0.9451601076661209,-16.820656666873486,-4.121738656046787,7.195937117434962,-4.644211523430558,-3.1809763230449404,2.832948245607561,4.8523931151590425
13.719599247133559,-7.269290659302822,-19.93777235171211,-4.081835131731814,3.101842675999862,-5.8458185320070815,-7.346378509703345,1.799123234783785,-6.455436190470124,3.4514572577218807,2.019913564768723,-16.585233527697852,-2.7220880317114933,5.2889209044721195,-7.833086283978268,-3.02497771970709,4.90979067194079,3.6393676714348544
12.364950903982425,-2.4298189213584855,-23.412084789266633,-2.482974960921199,5.250069519078117,-19.360969420069125,-13.387812608627181,1.9888008029051658,1.422046310832208,3.2945189925235017,-3.9361242120025626,-16.74036885898158,-11.57958034042857,4.163434607555027,-10.24322329062622,-7.850542683210116,10.307900978884508,1.839664857112636
12.475293727454684,0.4557618389828093,-20.052521371595493,-2.348645729706482,12.474581255500524,-24.96877667380876,-20.70043647235498,3.7411370474869585,6.366555758550099,3.1377128050656182,-6.375895625359238,-12.598484473185774,-10.283728872965767,4.21017593824471,-10.019183378397429,-13.36075853005352,10.335810836727422,-1.1326438548439715
13.56246438771656,-2.8118420819757155,-17.476444919081377,0.32513248270524464,9.736060498325024,-21.497291110987582,-18.54192804218557,4.028746306040819,9.74530727236354,0.9302584066469555,-8.229111399155487,-8.847144410555261,-6.451815457202578,2.2065064837596005,-11.164989997602019,-10.864113377756931,6.751430490136816,-5.1798822292619935
11.134332970686472,1.4394424863820703,-12.265891814804924,5.050083709672528,21.839549590374162,-20.958356087426832,-13.650699689774958,3.2422642242393866,12.144256327690421,-2.058260994886241,0.46533920711498844,-5.1933671880480485,3.334205426393673,1.9611453113488047,-10.84862298408967,-3.973969716234544,6.000241996857811,-2.8800429629610704
13.003645400665334,5.104013025279016,-11.35461713295911,14.951268492651568,12.749320376879105,-8.410276360253931,-4.659570306854494,1.5770113386302018,17.079092690232265,-2.409791602975936,1.6407952271504875,5.394213471165003,4.03506895019985,2.6928978218025463,-6.042744879196935,0.571263155603031,-3.7342697962251616,-0.4832018384699577
12.236829244060047,-2.7558071539219213,2.933376289235433,14.20814587357805,5.121947994066559,-0.9430931965038205,-6.41254260934923,4.892457453547889,20.643519772566904,-4.616556292690997,2.0356613490769124,8.559919423933987,6.100182828349055,0.9838104828927481,-6.317864880657093,1.8926412111853796,-3.8970627538081057,-3.946460908565148
16.548973316093907,4.52053544054003,2.0819762064937635,17.46938987100869,8.430213988638535,4.372991052612704,5.602450989384344,3.032203299571689,27.818097051507124,-6.237078135914237,6.923475763824767,12.116380154654227,13.924177078332761,2.205126356796036,-3.2754661738618793,8.58402206895013,-4.253839364773448,-1.062582075843702
18.127585805622367,6.327248233267454,9.626647499185655,15.652843671354603,8.3184125070117,6.952097507855765,15.760147891652908,-1.074012935132953,28.25112033156953,-3.1696983957495806,13.960472482350106,10.692430791195909,12.956082150045965,5.282677570066655,-0.13830119028235188,11.856186441567996,-3.437319815317611,2.3089912902704555
13.652430834364765,-2.4138805754535593,7.012370633142204,12.07888345165632,18.75158339599254,-16.252930896057922,-1.916433956514866,-2.6409557502009537,20.087110161402443,-2.9340292131880967,9.96287585790082,3.2138475375309774,7.004585487877932,-1.307082099952293,-9.601921321966765,1.8456807272718097,-11.603837791031205,-1.54668080929725
18.846531571695884,8.864012393090174,0.3915358689546977,2.8412125863766375,14.241040414970342,-7.135667194199044,-3.1883604644344317,-8.79763372170233,23.05294884022811,-0.7448073018139416,11.044231731505398,-2.4090808498650667,12.573882433914555,-3.110740220734577,-9.400405156858012,-4.943358021674543,-9.514747449576442,-1.1059631593647419
16.326936838122208,10.179991594121848,-2.91157215602567,5.322921745652621,19.982465255111684,-5.931026838063763,-9.54035568265646,-10.559528111510314,21.42576000999889,-0.3129926269125205,11.833382510319552,-4.027871871596922,15.50363943994953,-0.12823018908471084,-15.354348102220493,-6.069506525749302,-8.400618218028676,0.11548785460144906
14.785311470648907,-6.962175788247083,3.743728466136446,3.508154397542504,20.64357812380596,-0.7246902141724476,-9.058195574249929,-13.29780782071409,12.8617785631997,-1.2479199576450402,16.920259445301713,-13.459099504836573,15.793896627348168,5.101412998860791,-14.475310390683127,-8.857114720841478,-0.6440761167076996,-0.6167218772646006
11.389706214134119,5.387451065456938,0.14224251372808894,4.037649629288373,25.697165775366663,-5.383979348954616,0.6995440513709514,-11.934263426041248,8.88463918658745,4.165406527131777,17.515682693578146,-9.608678984749663,22.526865138682062,6.718790759537988,-14.868922294637935,-5.29826655182455,5.844671616237134,-1.7400455705987437
20.00764446971555,2.8922483162392965,0.8349316201831449,4.3723188446957035,24.205547708722342,1.3805718625972112,-13.861417793489094,-5.394652754275498,15.64680140092981,2.840884048373531,12.740748627161834,-3.121290825689984,23.983658497338872,3.9427065071483582,-15.265669209186553,-6.330646771728962,4.034336771236646,-3.645090942215301
19.15454665243618,8.599432531900884,3.7709429183961056,12.61776699591979,26.227457872967022,-1.0367393887373666,-0.689523077388106,-4.323662389469384,17.71836454840328,5.618556180107452,15.29097872268844,5.514789647396707,24.4612604858565,8.394496098051816,-13.614772793752433,0.9365492272339591,13.456535726621919,-5.159941591875636
28.75271379547329,14.403400825788466,-0.034274727915530434,17.152735384995687,24.340894944459144,11.778603820607728,2.7146394242086966,-1.5922701893666371,28.28314607745984,5.955388740851713,13.154485392022357,12.881555067952476,27.377735952419506,11.089711598931205,-8.353741606473479,7.128162055050284,11.357082554214106,-1.2063712661716357
25.071435748248348,7.803951594826721,8.364842463328525,16.414712392553987,25.772518729707592,7.501972845725426,3.4800690616853593,-3.059933469052729,25.075203868665987,6.097544121796579,11.40948472997312,15.072709478467992,20.7212273857439,15.544095130391344,-8.076487393587286,5.505792045537149,14.044886459979715,-4.479862197222921
27.642379763763756,0.7153178021893059,11.292206919279366,16.165516742749155,22.319066105287817,3.711845628953366,8.442792828833538,-0.23042180299275827,21.37601317685595,10.439654929406164,13.474010378989423,10.525742742677803,13.964580548431258,18.73031947829036,-4.872762049838894,6.421144783219539,16.734783765653333,-0.3317291871279906
31.289803231066635,13.352639798058657,6.6969706458311435,8.690198845623751,19.5470152274806,8.318585140508123,-3.4912751148036403,3.9665395367628467,31.54128422834227,9.997243276712275,16.711315197186565,1.7797698182885284,14.23685574904372,17.62105662398404,-7.336473805901216,3.8194262228424725,14.153320987874519,0.49570068778792375
28.103545081401485,14.660743780412574,8.153525188398852,6.293645659979459,22.339239905091496,7.650195008368147,-0.9740133273389242,-0.5277898951895414,32.621470218005385,7.895390934541711,18.09402016358186,-1.3994216059853803,18.022419800728755,17.587543340405702,-6.287820461855961,-0.8345109883254738,16.847597354251654,0.6392108823429581
33.415984546178336,15.870256795350748,7.946875821958205,5.557847800732562,21.808872339182955,11.081906690051815,0.46698517716653853,-8.146912307186037,46.49192664356231,9.505307554351258,13.520510177405162,-6.7267794111458965,16.23914838268273,18.043893339450147,-4.7542156335280925,-4.31797418936692,17.59100211174287,0.6847724105494528
24.277664756900435,13.95377514628101,14.280240508315,-0.6461984235779701,19.32310712032097,4.062806395733631,-5.809017468870252,-0.3358506961814465,40.43733172832512,12.678556633207798,12.072964102011515,-13.323370475671247,17.187994850547348,13.618990105274113,-8.692803464394384,-4.873136140400836,17.262515583035267,2.8785379408582656
22.564029497202217,12.42696299594941,7.133751319591632,1.7442327265871096,19.960132567015318,5.929217182075961,-5.446344226370847,-1.8020072099463373,36.33303978826265,11.555707360142717,9.942738134828277,-13.962508743946925,18.427560957749684,10.172356232483544,-7.068279663735737,-2.8906392136993144,17.815351799713163,5.072061877675813
24.759507943133038,4.746736498386136,11.410101770534322,-3.2867171482362316,21.278490542078895,4.0833820319443355,-4.499784985991,1.8103117472224586,33.98375512331925,12.582203982087771,6.25091969995549,-15.187249741587305,19.27428747830396,10.926754285333983,-6.814362504254779,-0.7142799241036624,19.737857185543884,3.066086095173329
19.145276833501473,14.155621734006214,9.62852710488422,-1.8716381379460323,17.125728254851314,5.459092842326758,0.643987376352765,2.8838078844664725,31.533999615345763,11.461139116707068,8.419503148520914,-10.356854346168358,18.946957033030372,11.097011052070798,-4.220074990805674,0.28872326372736445,16.779992519725262,3.989650307369965
19.19820750856392,7.156996907527051,15.070451632133832,2.1808285328357875,13.654267585145494,13.083832726982397,3.5395534722707076,5.324795848604529,30.839288352759617,9.852727304318337,7.268666018144356,-4.354197094200635,18.422191045024135,14.198860112754605,2.0817756702470476,0.8996228050036663,12.75046417543412,5.010704689688072
10.562712930695772,2.1104993455027072,16.700523264289103,5.355014693484083,12.426615984547052,8.793355949120354,2.0384351815568813,6.691836735609444,26.821435879944193,5.999161945293682,5.92346011074316,-4.015307702046703,16.430482290867126,10.661896715992999,0.2745888835295265,2.583275960471237,13.02050066625229,1.1487290627297257
6.422686263538543,0.8716073641756834,14.421057683675688,6.088406812881615,11.587259307132198,2.255873409938335,-0.7343269662746419,9.133404943740484,21.042982008066254,1.4629993627127251,7.411278493261282,-2.113501739804489,15.803947910612223,3.8065366255503417,-1.2430822406423854,3.874808399044271,7.531405804040534,2.0718641696590376
8.243089260173644,12.81544431021128,16.825910300414698,4.478672782559257,-1.6569842289888648,11.342846821358503,11.041814439002138,11.575268921127643,25.8088168388625,-0.33770730475384525,9.681310750530319,7.210696368685694,19.27704648669083,2.715001062316501,3.2905578882163873,7.020340515304769,5.170083172887142,4.166797970730687
10.65283919677663,14.601789591238866,19.325142445288105,10.389254352645331,-0.8408856555345219,20.91742230989278,18.714225182267302,11.5759881886431,28.9117365183489,3.722121610340825,8.924906151513369,13.410261305713156,25.580268347050573,9.145179499808345,7.625404254447375,8.015897923992494,11.503071325005434,6.652292741084711
8.085535130878478,7.793145326873166,15.570976953449115,8.585553907918545,9.933910503129534,-0.5637538153888304,8.903789641688661,4.4479936408164775,27.422021274263077,-2.959297986475346,5.1420648404270235,10.430423190873366,9.420298749290474,7.5695401456025975,2.093332335774896,3.63876873960913,6.803552199072442,4.5478277563144855
2.396761562909835,9.870224226965089,16.110426522055196,-2.201969469588306,6.448264382276395,-0.4630627732985175,15.40008129237523,-0.3359121465746102,20.851393561354588,-2.1199372167036836,3.9969349043508835,3.4470515933103067,13.278293527863443,4.824172414595958,3.9797552544186594,-1.0328504420671036,5.52491481617176,3.5175757700163794
7.258686674969426,9.407046841205618,9.810486350228276,-3.9066242844261447,9.014964706979264,-0.9487143080070535,6.366672832711867,1.9118434626417926,22.481315878233342,-4.990404983037227,2.462124579418873,2.6165601073338793,15.181298866664129,3.5458815894977596,-2.633544179668881,0.25113041786659096,5.323414880419343,1.6084055852921144
5.678945304521614,3.6691714881825375,11.417453585000931,-10.005169230544345,1.0321734757031384,-3.876107843997548,7.194573268490975,6.503689345800133,14.44043026977181,-2.5861582415716793,0.43997333523580817,-1.533844216302131,12.29727678192775,4.711290044092552,-1.7307008266707982,-4.423537753317759,7.175669202279934,-1.082001693082102
3.2241072554976933,5.938024743386098,10.481929230142395,-8.290377460306829,6.2306983709700425,4.231622716946001,6.45782415106909,5.138717257615034,11.96335130974904,-4.086993879809253,4.766519229367297,-1.289192890613335,12.829512617796734,8.418099145224623,3.7585501406533517,-2.9472994070381517,11.7653192695811,3.5519694689333994
6.925605364928948,7.717355984757281,4.855423017932294,-12.434323369088109,1.856261738079061,4.331316277666284,2.6915570977359735,5.7272030470967135,7.725754197256028,-0.8990003497095032,2.843909079284148,-2.606601928324598,10.625602540237576,6.75607420464816,1.529331740565457,-4.304670324835428,9.033653010272747,2.033573752117308
2.1348510278150297,14.47597026426894,9.38189228799995,-2.9054498041339665,7.147413114154723,2.96613987821073,5.270913448389184,10.124641875585183,11.200444011678417,-1.2253976817128338,6.488723794725268,6.623493651236,15.35369517281768,3.7292234505518103,5.644358043239178,0.7818316497702611,10.601974477868744,1.4918487038475834
4.379494149716304,14.494909185952217,1.014092037770078,-4.118182769005041,7.35780736431288,-5.6256145277535925,4.625433519862502,11.592646944096675,7.152816135445397,-4.382551833696908,5.251578602049436,7.74846970061375,10.99795197332159,1.3883989123720504,3.310465765484844,2.2534566493804826,10.122561316426836,1.1455545978003592
9.362660135529453,21.44622559081108,1.1390498696442526,1.5058799021492353,11.178955848558346,-4.060770451790713,13.255307462019875,8.178059864882721,14.723789022085857,-1.1906056575054804,5.577876851557448,14.3427552819755,13.37895611391357,7.155626916984268,4.879377192872447,3.1375924999418485,13.650221907271865,2.9478680897447322
8.295215032189263,9.548244091728442,4.3855734411336424,-1.951464580440308,9.138029089234012,-0.5424792491162731,0.9842935446346659,8.474757304062017,8.815323370650887,-1.3176461442776053,2.78003861036213,9.99985214785606,11.0707796382796,7.651833718299678,-0.39125613133863446,-0.2767565363828961,9.46605363191181,-0.8161507990410193
12.993804686512005,13.762402446292896,-1.6488860149045317,-2.9665941138970924,12.172664094201577,-0.14884456725350592,2.676205530862048,7.4045314036873675,19.310686095257704,-2.5175162876483643,-2.2630257600441546,7.610582956419604,17.843189860117345,5.1231825568637435,1.5612844317019565,-2.4231003871407784,12.609372343576375,-1.0643111227489788
10.567663264582302,10.943781801509964,1.981258197027564,0.5113125260629549,9.247505106953287,-4.149318215076315,10.127794345237866,5.650980047867077,18.670391416271066,-1.8604552071176497,-2.617626888392085,9.81170646840398,20.21944285532506,-0.13731957617685708,2.72906932306846,-1.9342313171884982,10.091720120015998,-0.1403779295473619
5.802072417879464,14.080825924574706,-1.2281660068230167,1.7438798670668683,11.397844381836824,-6.684337048569119,1.6590433386753944,12.491581307089097,17.148497489666962,-3.936348327540066,-3.5572937844745987,10.743756825029196,19.664427151858877,2.0267646078860766,0.7683189592275603,-3.595378739892597,7.967895983598915,2.9322464810871613
6.705015690792501,9.79438751358106,11.086450769549788,2.977244446106261,17.94004407093458,-1.6013648315233682,-2.612550788953631,15.426136237079795,21.1904091053363,-3.0810186821444194,-2.1523061350931245,14.606014131915204,22.232943228498875,4.193477707404638,0.9525585089055717,1.7732852427774946,8.777017904774992,4.5402455888406035
11.81167225269977,9.510384032537484,11.28795588923873,4.406730174609688,16.37387846133759,-3.8419373776283945,-0.1478839883301839,18.849233957822563,28.15935972094918,-4.470298791385608,-2.3089862708619595,15.636667690369219,25.288250813568084,-1.352112373326749,4.258373570586578,3.0387790424243653,11.835496000237232,3.1211149639056655
9.696128149257328,8.834177818422056,11.095266924000802,1.8330625762003403,15.097876901915527,-3.3472092574587853,3.4865559382605076,14.752929598483377,23.894967964145465,-8.20181902986778,0.8555392700195803,14.909947263569165,18.673961728707415,0.7222874612885422,5.412255344551587,5.1816486467052805,5.4244133016216045,7.464070161177024
6.315543495103701,14.699427846985161,6.309090751744999,4.533735233769148,16.651102988769534,-0.9960022229079222,1.4547311523204067,14.758483052692656,18.45597053378989,-8.318430235397226,3.434946530303867,18.285310498893065,23.581820431011064,-1.106909720286545,3.535294283337226,5.858109976866593,9.270642697725556,2.432179914680358
12.802934912303517,4.058865663459346,4.93735273463966,4.891452608647402,15.36936878887035,-7.139939159151512,1.4716076874430875,11.54155161688565,22.975337802603413,-14.976510732136768,0.058044657404652256,18.633734191165864,20.870922722827423,-4.105262285580233,4.877596791678393,-0.4006682948228977,4.03795853800745,1.5022303163881254
8.845522936118481,16.756806266292095,-2.7857294834252286,5.152350841778931,15.549574496355417,-8.790443452746818,-2.1269582243094467,13.793660956575065,16.163668970116642,-10.011694580693478,3.322666204397438,18.49430996693151,19.232818345199885,-5.538330105788036,3.1890794355549925,1.5422661009639196,4.570341722241022,2.428110778226232
4.99037018348824,5.7221747480761795,-4.652945718782965,-0.6406841679846398,18.168255767591084,-15.71319239285179,-3.8721273711791597,9.307579333534756,3.3921248719153034,-9.537483022489681,0.04499956147463724,11.519273633884943,10.268950495173199,-7.74987705079878,1.3018294907655292,4.069612402012893,-3.4878936626179993,3.5496566210778604
13.737690233859206,7.674236074454464,-8.67223696577695,-6.823495510865394,17.75653603417489,-17.458711567259733,1.0213358879221064,5.700595246203592,12.688460663227245,-10.233487421132192,-1.57172254296814,5.032943132533331,7.2607786464249635,-5.271049299458682,1.6573041281799767,3.372722125953935,-4.023221129554093,4.378595502034486
19.559921370513322,9.429148852375516,-2.2457599967132325,-5.9740870148442475,20.271492949399494,-9.925280239495518,-0.4350408946587325,3.1680079359366333,11.337315772833481,-6.533191546962621,1.4022139140567154,14.562885071393193,6.790286663829556,-0.25029829121910385,0.9351546854873822,5.604036693144755,-2.0161885963123325,5.110258700726872
22.84770960927278,14.502544125163746,-12.424713006400692,-10.690299291459244,23.466952625211675,-12.253720454978978,-6.874041743722065,0.049618581899398606,11.643546508461487,-8.300002564488924,-2.4591655683620814,13.35086306095599,5.6347718393413295,-0.20725271382847676,-2.1341541418496153,1.0954440248088466,-2.2520310467764624,4.963399524741984
26.53079826867682,12.152021770868712,-5.614836469670923,-12.280585652846407,23.143585010083054,-12.334378108688888,-4.037628357732611,-2.3850404238047958,13.314159412186989,-3.717309803880427,-1.7299250077287471,12.920473316440699,10.532618899728728,-4.262977155555699,-4.327900817025963,2.444797192773059,-0.9221048911748859,1.3012736370548508
9.22214940491564,10.48312443394477,-8.379037674753139,-7.4245751670033275,25.649094640253104,-11.143737036193965,-7.941661245154499,-0.9132828685029626,-2.4988108482981843,-5.382938132489361,-1.0976562392804352,12.881066217162623,10.448501802640095,-2.9446566372877125,-4.083544610570431,2.2301129356843976,0.11808196096481183,0.3739904609213791
10.180177710201171,5.784807148765754,-5.970998702248744,-6.473980568930055,20.827026639586713,-6.142603260676316,-3.449181172936554,-5.691533911578507,-2.591755317283944,-3.0428017550809074,-8.374999463523462,17.529562123667482,6.163678995870377,0.8179892448034467,-2.4753030220358703,1.0373430758233466,0.9661738185721038,1.5956170079236938
13.096039729250585,13.975229693949276,-17.726951797283967,-5.522484582319016,21.66580923934663,4.719927588331469,-8.529202174846693,-8.321249050158519,-2.882909491297628,-1.4821074163379215,-6.081240852299731,14.268090803523515,11.154913077676369,7.415602468369857,-3.6047827615089387,-5.430447181797185,9.434773863976122,0.08327911249688125
23.829194994936003,17.57360372888149,-12.884707356606626,-2.421609305559981,25.43097323141245,10.408621722128693,-9.411972097513443,-5.482087224464391,7.174737592592618,3.5961073838835595,1.4866567170524707,13.838980368113852,12.238401521861787,19.484951429949316,-2.4914199940968205,-8.286397326082522,15.855747184035472,7.165286852324774
21.578535946999367,17.458795101602497,-12.0500459218584,-2.054234183921617,21.966059913566433,2.036714578779786,-10.394420070899804,1.9470088506740493,5.119879656459997,4.281587010154473,2.5120837337947624,13.019500542404451,12.050893641279833,16.615576236243527,-4.506370649990288,-8.604735955342953,17.59231353286029,6.728124697852817
20.699737431522575,16.951112243288232,-8.777552839718496,-6.178191040884287,24.357151531566927,-0.18055297397798808,-13.722662041034111,2.344744102631053,9.507460251187915,6.238501057914943,-1.2471440651448127,8.196288550242008,15.86589567444414,12.6748821547254,-6.3292511205305955,-9.412846089382242,22.359410486345503,3.166401912664087
16.70052639984041,25.13266937348669,-4.922720186569669,-7.95743063700365,28.795540125636762,3.366275556071959,-4.552708791969164,2.254162187437216,10.47401956293228,3.412089627742386,3.6857172529936486,11.381218506077662,20.558346157777613,14.401257786740828,-0.44039432852268234,-4.655940538747032,25.17646676224581,4.585721242746584
16.22160813132782,22.960150716311915,-3.51293173519186,-2.216085392017322,27.077918317046027,1.8372771863656183,-1.732490823512523,7.534701648184951,5.187454130085131,6.349407936699421,5.591714055243096,16.32416559839527,16.655428479459918,11.833616529151758,4.566340298121036,1.6620210214244198,25.066875780724477,4.9313124653402625
11.352680581319566,17.074225365609472,0.041733659038597715,-3.309835838842866,27.40747801200759,1.9709208062476886,0.3044970239082181,7.639299758292653,2.632246158338649,0.89010221169934,4.7637941471159975,16.872661249963308,10.211904684883496,15.421337825528479,8.788632796262966,2.9003202938553203,23.69078730388533,6.742285836615994
22.699497790652433,17.045293885847087,7.40146612322497,-3.328397853837842,27.73334740388559,2.497739187869704,5.757552163779726,7.3531580731165,10.620984132165798,9.495470469839047,7.061395935394691,16.640009408479823,7.3801925526611765,19.304956875395582,10.46866670715109,6.1879806935187815,24.563845521273155,9.43270327139929
35.80868106720769,34.299253228437195,0.7925666829989853,-2.85771081117093,29.422674658725768,-2.6369656615045707,7.692990240301119,10.289584354229504,35.403731905790636,4.040100548536143,12.19151962440802,16.407438088731045,8.941532168060426,19.187531084213663,12.438539901042613,4.2006804385111485,26.41646273237217,7.5337390182818895
12.788990078334468,32.70268028393028,3.262272927809745,-7.366601209093797,18.705657360985448,-0.054003016968564355,9.919478910450215,11.27268884792515,-0.1691574796854809,18.508902201016024,12.439176608503336,10.608420751139954,6.985622782104859,14.580768094575241,12.354490540414982,5.92294068537405,26.51418252865484,9.736938985799254
8.8170068570553,28.076069151085164,3.970587804852711,-4.452529229779366,23.90297831294245,-8.308264820761242,4.722073084258206,14.501723962243325,2.8295738089700624,10.030142855422078,12.589568476427072,10.961849442388008,14.989206800256706,7.144844215554232,8.654019207710956,4.030440315238509,24.66164716207675,7.448428418537048
1.6267215449115433,33.603154472835385,6.823834209069004,-7.885229555075143,24.506449549076766,-7.575152854244374,1.6712482591383746,12.847643370912404,3.383641367188263,11.51449543054833,15.767714709505446,3.502629164492493,21.721616464785942,3.7157943822840362,4.169225272158139,1.8435522057334213,26.718276218468056,6.332361964626854
9.773055729140111,41.76422959085852,21.49014289205141,-3.406665603697442,25.789525891078156,-10.745413631643103,0.7670219765364399,14.904296047724216,57.84152715186955,-4.968140137319114,11.52420840566254,5.223167188133711,26.10858711467611,1.7545088934177446,2.7087859688553544,0.14354830682552078,26.629242466029055,2.8730660468546896
32.767667769040564,4.804598605013089,6.464989964064081,-1.6615247019828527,12.322220735787928,-19.479155411504273,-4.435998497695448,14.909842322497383,48.62327743996083,-12.659530326838192,1.2262287393019102,5.1857557837047965,13.599084105640536,-3.914882499233057,-1.000790849802244,-5.36650160743999,12.96854048430766,0.48856599158626857
18.55892536340562,7.100487812414773,-10.516809509836609,-4.505297752625545,5.198541875582171,-15.416651660099376,-2.023550181571217,14.719745434058431,-4.055990579551715,6.409360862630346,6.944395340380159,1.3395402898943622,9.095798003076347,1.4539274024344433,-0.7093835579570027,-7.362256379503532,14.935782314679996,1.6203090847360007
-10.880240594241016,7.8309005412245725,3.650736446335018,-7.44572275574787,-3.9801407321857702,-3.9290087121531796,3.6097878702051034,11.892527258158658,-15.038762873927169,-0.30131987223539003,6.510371130628338,1.9853852531003735,10.645539069622462,3.50523771451277,2.6064571244795687,-9.164068224509204,17.198648109160892,3.4362240136505164
56.072902446963454,22.42569843217483,-18.80682454346466,-6.088195676533377,-7.401272473983429,-0.44608223286206616,1.0380798756613254,9.650857829621664,106.00833454986419,-33.86579772142993,-15.115166333369881,-3.4237898359280585,9.459074038947504,4.1921886571407905,-1.502619903740654,-9.307059793828872,10.186622355844401,-0.7044130223282945
36.89596999377612,6.0599175590274275,6.877446461043913,-12.542270808062243,-21.56907613033809,5.188597848839713,7.253792992079553,9.947855823429283,96.19062942219396,-31.490136781219764,-21.603568546459133,-5.805860888733122,11.884117695022749,-0.09857221489932044,-2.880182174745314,-8.084192771285942,5.227943657786284,-2.4030344562140193
-38.039552641532595,-5.035481481989702,-9.043892001486014,-12.159281910701244,-24.60828259987496,15.709511088040543,9.952072890339805,5.068522936364065,-71.05481947716811,9.755403170374544,-2.700803954570288,-0.27798777434828637,15.967475289171166,-1.5544432058728503,-2.112148248438187,-6.179059519908561,6.228860153043248,0.6841467857357699
-10.723517428882772,-26.778771010860943,-0.7495001187367225,-14.607340327466941,-32.14419488267144,20.764997510534037,4.9336582253020485,4.778595681447289,-35.370986921248516,-4.857178783381578,-6.161538951407312,-6.469424229911819,9.794861010476215,-1.2496784053852767,-2.4211952934838776,-7.790930776912678,2.251641326758758,0.6468544672091641
-20.220625427765377,-24.59917126626509,-8.962631332427172,-9.14409002546127,-34.801734290811964,29.53494273546816,6.749574309391654,1.949020896729997,-89.82878682441967,20.18139320478836,5.41710919149617,1.3037663762151386,5.378133869318063,5.405615615095014,2.052169716471509,-9.404115550024052,3.940915147257286,5.102392447600047
3.684955888701978,-34.044159367024626,-13.858738956646732,-11.883053850710724,-31.604387480716568,36.06228014542712,4.657492309917556,-1.467085338728035,-81.10560268962743,20.124042359781335,3.226075134155301,1.6544889100103344,11.799419217123877,3.274467388966169,1.2492285139779655,-8.674815484085087,1.7261553520774733,6.824087508007509
21.051124692909642,-6.77321300695564,-19.148790434575297,-11.984218741941143,-19.91545913010448,32.14381250882986,2.954375927813563,-6.153366481606048,-11.54525546551638,4.541231070484276,-5.508000582605547,-4.34307251292447,14.89829885775342,3.294520702651557,0.834159329291881,-9.997616064681008,1.9550453656720848,1.7103135464041928
43.88969348479047,-29.408806004999583,-7.3520223539920115,-11.59605148021484,-20.145480111092816,27.838337339185465,1.4449333725074784,-7.422290792731722,26.858628872988824,-12.113692373812038,-15.51163242736601,-3.700490426225789,12.819228520502069,-0.5890287820947382,3.2484352900137505,-13.76313522046966,-5.528891359729599,-0.766130217117543
-16.765631913318323,-21.383360219721272,-23.390966007906272,-2.808272051488144,-19.989637795060823,23.53653315222667,0.9104508133210083,-3.3207437287659074,-69.31353074993093,4.144167214898252,-7.253304991519986,8.074438334120211,12.788832500384874,-4.567554965849972,1.8513599995820518,-8.936035092313002,-2.561388553058247,-0.01929946107893965
12.622856495592057,-21.564712765803986,-27.811863970781943,1.878931392426817,-12.514294636248728,18.554840541673812,-0.6022017414964368,-1.0754387524182913,-33.94442616221711,0.28665741052995086,-7.3936141127783745,6.176594015900541,14.31877242185406,-10.594239709248,3.1860322761280067,-2.5476595771408004,-5.646679446683411,0.43512451592813584
16.623610378050863,-7.979927631368822,-24.618651948878245,4.711688944441457,-12.856461669433607,20.60826292229291,-2.116421512007922,3.1222349142173487,-19.477822802460672,0.9235280258138214,-4.8972680752391025,12.188282594133694,9.108089569140782,-9.196310544317214,5.201670089181216,3.6441655411466822,-5.800328784089697,6.651918426643382
18.381411459610376,-9.633408055147367,-7.658859456965909,5.690002117760379,-8.8089819374492,20.126380828225052,-5.09704864939891,0.7760124336708598,-12.534642672983127,3.0273872212716504,0.6263310406611633,15.660070476310594,3.6998006717602774,-7.502812071129782,6.2381226407207855,4.561251433779011,-4.780254345441531,8.572331350786754
17.31020747789782,-9.728075970880138,-15.409602053961002,4.325583128190249,-2.0320967707717825,17.206888150841632,-2.3173838554960278,0.9680218725427245,-23.076006939503714,4.156788384131284,3.1223702014590264,12.29496093516332,-0.7342542284535121,-1.3144922564743897,8.736864479534479,7.137311402592129,-4.246717727252539,11.56753481265222
25.812422541648324,-19.885254437814893,-1.190444720444054,-0.4558028854898182,-1.9010081022585457,18.490544418215777,-3.5431740351075534,3.3075902201333163,-9.890380161436767,3.82343846943082,4.836944198170309,5.510917991738262,-2.045658590714531,1.2630244724805317,11.916664980994375,5.2199216383043545,-0.8794372716173182,11.438241319492803
14.297649503110945,-10.905329809742836,-19.59202780911353,9.998472048768857,-11.247848352128058,15.96944515311287,-3.9891622276648286,6.232151337656641,-27.56846916139095,4.078144420591541,6.551281648839977,10.737807024985916,-10.488529695758878,2.2805174788135503,10.699353197212403,4.473244930790768,-1.3192222446197484,14.434541105730725
36.37987289090896,-27.32028084809769,7.023589599361042,13.61775755266541,-17.37716828172293,19.409391571247813,-0.23729924707725236,9.448689499618474,8.851930745191492,2.9677445606030677,7.679402755644815,10.20186113340134,-5.359481945606376,2.6168720778538743,8.30766632852847,5.678557081370711,-5.663814690794247,15.18525287962187
17.741434809287014,-21.375520419392807,1.6044891385514006,17.140435839922095,-14.917848133982034,14.161746817348654,-2.1509879765833833,9.929772086879145,-14.693449279143064,5.17980224847434,11.151006329818,13.473480069221287,-5.701830646244128,1.588448594746649,5.425240563817781,5.710824281421916,-7.565547111797734,15.350552210499838
10.33613260400298,-10.551830276561393,5.3622768132180845,19.882900090160213,-11.48724651164722,16.926005564296798,9.606033593198651,10.312115278692014,-10.605643774670055,7.88223354127037,12.473802915505317,15.279086548716947,-0.28499225143400686,6.519540916538529,6.9349951478953225,12.187364111619408,-0.8720687350719913,15.711694601236482
11.527084214575362,-4.12674041609505,6.285091283933292,24.57956357252336,-8.647941003178598,24.186507203401447,16.967113590961187,10.205045222233291,-6.131188747149595,10.293765710857755,16.823619335328253,17.278802355903,7.570612988963958,7.937310515944973,10.395519044799938,16.807282463786557,2.0139993999453445,17.538223877113957
-3.100271045439591,-15.870035241481368,6.228471311419625,24.199064698819917,-16.849362379962535,24.029022388590402,13.877502776993394,6.3858135568291345,-34.571399127702364,21.594214179581073,11.211942774401784,13.222471897040236,-4.30337946246663,9.650370433978502,7.798910261614618,14.297075109401018,2.7527497072617066,12.333909501541724
-1.026033839967436,-13.652359599942221,-2.4248441667253937,15.128061918514703,-20.27100810508802,17.91842907889235,12.935080876374261,3.737264355552166,-26.00335753449163,12.779216618128206,2.670097200924051,8.578868027320844,-12.371512124462626,9.412552753540579,7.055478682011361,10.22324689471745,3.492562233694935,4.786315542373813
15.112906336872399,-7.532500338539228,2.9817841714375852,10.940975059237793,-22.233291459579778,17.476007109907,8.96401951354352,2.5523279550888835,4.045331798414178,9.142112845972907,4.284186555304235,4.031534029318709,-14.192399677762895,4.58705755018197,7.872284256726473,8.492120989888907,4.13568799379699,0.6572409314791248
4.007192614929494,-12.940418225172172,14.440466157344574,12.419059089506927,-13.65409144263441,18.50247931753826,4.0151636970812365,-1.07534803434128,18.074074126577322,0.42882389559798373,0.917227992558094,-1.493826378123435,-3.5160051562717776,0.8379917889522286,5.854762095934806,4.611454809102116,8.002397957258067,-1.7135038881815436
7.063571840699712,-22.551818744521793,18.96276776106331,9.503558910549545,-10.354009473670521,20.997848271485026,3.8503531864717786,-6.364544326072275,3.9732881746983475,7.245115301609232,3.799828652459056,-2.040152360975066,2.176877405507737,3.731803698536954,0.0263684681261247,2.1945980861154073,11.674578134649801,-2.5212425693996714
-0.23018581262844862,-11.171039063650422,3.5602558123603263,6.100775343572311,-9.696332743561275,19.78625323107001,-0.8078636008940427,-5.697999623332205,-12.084772153716179,12.110232559363162,6.974833591003888,-8.740487716996665,0.6400613578027716,3.600333076966466,1.1294887214916693,-1.7858258929076456,13.101322070353804,-3.4261650239130805
-1.0770880699529108,-11.61111208157753,12.178960477837261,7.3865589061491495,-7.872454195398876,19.750577620219033,-1.6585443684567527,-2.0054883136495505,-3.341905457875904,11.80144983754831,8.586713164821587,-10.168938312037952,1.5416043396683516,6.693630423948773,3.011719433832437,-3.0328634546664306,13.161454747938397,-2.6704403746431815
14.679129141330083,-8.344487382993275,-2.6427320312979394,6.915488110381057,-9.472331036912232,20.402526103130413,-5.928326832075426,-0.2675970272212851,3.0530181754017462,13.838391332998421,4.533809957238371,-10.817821628218894,1.5610846121029578,5.6873194477377655,-0.08871157166318744,-2.4254212811883717,14.784612994360202,-4.843990929237879
26.530197721750447,-22.465265127045377,22.084469388647236,2.8320543241611134,-7.1716747725657575,16.85920200762739,-7.9530263241137735,1.957076205277143,33.369913596653184,6.599762790164156,0.28492537140877694,-11.273145450713322,-4.868047458024099,9.956496537945542,0.22679614473808662,-1.623668108368494,16.701150179234993,-5.356911458301262
-12.888030628911963,-13.34785169829803,-4.070453138723696,8.417697705881675,-3.2166540170259745,15.077714813083675,-11.345942790021738,-0.9956586812057058,-29.09223481307766,15.183578864974443,-1.0349246290355678,-6.945057182914209,-13.351251811857086,11.00489078740823,2.688727057305644,-0.8229067079622407,8.754564759297631,-3.232633114676436
18.691788855787486,-14.000587512919168,-0.05152504367277899,10.879240866910965,-1.8065907489733428,19.84327814373249,-6.829553763033103,-1.703854127970172,11.372669138600324,5.507262315406143,-1.6718994258077036,0.31088513790639016,-10.900106992093537,12.836421207989495,2.4142295755728345,5.152735712349512,3.0543194568614638,-1.889185316542946
7.009952881776739,-10.751411144587376,-7.363234882777784,12.658112952821472,-0.5977369050383228,17.679105278665038,-14.911946792720457,-1.4371009555668168,-12.816070550948789,10.969732970880205,2.768568329970659,0.6311890573292294,-13.921170989769324,8.712654612129922,1.1611787713034851,4.779658231735819,-2.1575225146772254,-0.4476568379317376
14.07897777366486,-8.971518418164074,-12.919393740755064,11.312855179020476,9.589698853718154,10.147698577273063,-8.541889244890083,-3.711117466777666,-8.395324837513671,11.160494491345544,-1.6786087188900796,2.41435985882225,-4.445476868338673,2.1492197795439685,3.9101554863831693,5.870492321793387,-7.857636351241634,-1.4471572432828506
13.140492852035784,-3.289751650436995,-13.00895503557485,14.753728298834211,0.43493713156637437,10.725801836592554,-13.20801193599547,1.7281199837384351,-4.662427401611021,10.474115192766474,-1.536692471679192,7.320519145379303,-10.207879614653146,1.6422895287252883,1.0907376407490332,7.15569946113691,-7.112420548414526,0.19050778418430436
19.81958555641327,-13.237674786279964,-1.7724011976888856,7.550792264537521,4.360314390891876,13.749238972312893,-15.335848877364644,-1.8189006012355353,-4.937751885025859,14.184081729011279,0.4598708269570926,2.654101166036397,-5.817423057812183,3.3831607530408494,-2.414150932694522,5.803217122124342,-6.9533306133454005,-0.3198990067288392
4.623466400069642,-3.658515172899384,-12.803940986818013,5.62224071665248,2.615512766856922,13.846804354511585,-15.21833242750542,0.39410178847054933,-20.940236408939498,17.602789954724834,-2.1343586364863043,-0.7449439522977963,-7.192374524764416,5.2233113023246815,-4.846633699019615,8.45378340384445,-3.962443951915109,-0.927572835971473
24.877076019882292,-12.345829910494562,-1.3762749041856606,-1.383665684056183,4.1850141141821755,9.162968283041657,-18.71488538017863,-3.7424696457798596,13.737374198241806,6.081544946254241,-5.413099625832158,-4.6345139975219976,-8.375666913516318,1.6938552782644969,-6.987934966331286,4.560373972897371,-7.905632905605071,-5.0505421143848
18.37228038832621,-6.193654618644475,-9.286860568396783,3.6231578355304084,-1.4782462047449245,12.295543936585839,-13.91122107424932,-7.49026707994018,7.9804014534063885,5.108981716624528,-4.005204169617444,-2.569255963602659,-15.617449946295206,6.07619234896395,-6.201257723624517,5.15832489865346,-4.915596643804161,-5.559799025788294
-1.7072797406648625,-17.038419962227433,-0.6952515650481104,0.03690750512381147,2.032205002175642,5.763757925486846,-23.07326115404544,-3.5249954271429873,-19.460874274490497,6.384155956786994,-3.3795327808803988,-2.947792664237828,-20.42155383775989,4.893500888215417,-7.564766003871464,4.290525299933525,-6.906677600055364,-8.607788086202559
27.041536943173007,-6.793612514432482,-9.586285080784341,1.6273032509513259,4.266963956687723,7.927224944054192,-21.78652674454989,-6.3976925242780585,26.727496854651328,-0.9329790915499565,-10.95810006760274,-2.5474750965968536,-13.705861564030997,3.223929444790694,-7.465084529221112,1.9569862804160834,-5.285092573544505,-12.827307460518433
15.847689676796861,0.22398735812698511,-17.404933534958353,1.5582810153847033,4.347086998802389,5.895080355866742,-20.793324701902108,-6.342618001989318,9.434044359544165,3.860978702328201,-13.166505764192603,0.09650721766408044,-10.607374809884094,2.8252629971453853,-11.273349666128622,2.1616861296828387,-7.082296509116592,-11.382321473060369
-5.503365974277546,-10.731940021334966,-17.31509761814931,6.9588327842186555,4.225706534526647,8.065844450988566,-22.535053270091414,-5.898905793600479,-27.10227758657333,7.1915635352794425,-6.684411541441738,0.003554763185484866,-8.880016624862558,5.845917125445235,-13.423030428678892,0.31472184995435626,-4.48576750392267,-8.862749621156858
-0.6831059139823239,-16.614166740509273,-9.414377054673876,-1.6049555524318198,-0.9800852198877417,5.552615155238289,-20.66391340336579,-8.191635276564684,-21.357093580747637,12.281439794430241,-12.312940073642695,-6.928011401644827,-9.988703251628072,3.2036669826689543,-12.937509154261015,-4.560473321328056,-4.819932961333276,-10.542115131664314
3.061805208072812,-10.879620817687057,-12.550657191552899,-2.453090264862448,-0.9185869478213817,10.757875450688466,-21.429953884454186,-5.408217895539707,-5.166826559370193,9.169475867065511,-17.356608326261295,-9.467604047471921,-5.046629506899043,2.8087342432188027,-12.844135058657502,-1.9168529547604938,-5.838761268353888,-11.537535779692412
17.54779902708301,-9.64182383502559,-4.262598848307875,-6.2302903487236945,-0.08207217577720449,10.986066876937667,-5.789868183151746,-5.458960181176807,14.437167776067835,8.988610963426328,-15.077054544038791,-10.935638200438525,0.8679539609268021,5.05169437741458,-7.283402536262624,1.018920534778495,-1.0969374369801628,-11.653700366146653
6.739014884640289,-3.525625057081097,-9.843497361476114,0.6378440348867773,3.580255836523799,18.639668031492835,-5.873005021810853,-10.101729921335258,11.08730241994852,7.637175821078239,-14.06818127906408,-10.64856046100255,6.290133932098081,4.36600054391227,-6.899963597392281,2.489018046274482,2.569401476193183,-12.06250553176665
-13.153516382659841,-9.230488233526316,-2.535072202760274,-7.337384031478777,4.990180496271952,13.112839258354533,-12.89011946468294,-5.664470811647569,-5.938933236588341,8.240172974933262,-14.037035814187185,-20.520664774593424,10.047971485252821,-3.252370368584197,-9.447648090096571,2.2004764517425732,-0.3086725447193617,-13.83818963624373
0.1558533472481365,-10.838189787099394,-6.458725127209722,2.656998715229098,-1.6141172534752695,8.468236638146143,-13.266736812184224,-5.135688420612993,1.0543538274311102,8.063139618676374,-9.807777489799609,-13.793778808150975,7.942138867282548,-4.71733700750919,-15.219386647773907,0.44627893988941736,1.3040713107499249,-15.711204718817177
3.5999081319055133,-13.42691816299394,5.436798228634229,0.6400379641308795,1.5410606408807217,9.002740301788046,-11.983352539152657,-2.1676545509540777,3.941741033218653,14.528017029420933,-6.067996448961935,-16.151935452012914,13.156387217998013,-0.7125593882186383,-12.886838376703942,-3.164195600501686,7.0169090638482805,-10.454880099687486
8.604451991541467,2.632548541100295,-16.2632580590811,4.287755944780467,6.643086074363303,4.364567503155438,-12.653253353933785,-0.8620179500717973,16.102346619858753,6.150054555951024,-8.091228311075815,-14.899674446405504,19.342920835038292,-0.41792087453942095,-13.485284434319524,-7.947333252658009,9.017129356744539,-12.03427412807219
13.997441581991048,-10.219090912680382,0.9032099753254563,0.7093015931767184,8.223118484324202,4.2217704502087585,-11.272421879525908,-2.5860093604082595,33.04392364560413,-2.7151086234095914,-13.33838850905757,-11.59956427533753,25.818094169441324,-7.739786767692021,-12.522424867950162,-6.969424839195742,6.03509035752188,-13.61334591484992
11.770793011975787,1.5346253381195396,-14.646860257121086,-2.1850781177035827,13.11719436648828,9.941491748287298,-11.454144167975436,-5.777126008956229,25.664475925844876,-2.204090130485463,-14.094531264191916,-12.892374555910958,34.1443909637001,-7.541262895761214,-10.095873098906502,-10.67983903118747,5.688005589800643,-11.5787594018515
-7.255469078089977,-7.126498607584056,-0.9007427325958091,-1.660997037006255,3.063312824870483,11.269601320386837,-0.014574721003695501,-11.21664954512854,0.21411048944072797,-1.1061366585537264,-10.164355797408067,-5.887325488769868,28.989507231778127,-10.760071507658267,-7.670450516179129,-7.4572953288182955,0.8467708868554742,-13.35250257080892
13.364682891603477,-7.198089610058313,-5.027064848454234,2.1838559453200483,2.1829340324958366,0.1980955933428845,-2.5399906866631072,-8.74819335308348,27.1040709353378,-8.601126517257905,-11.118334348150807,-4.061225691533675,23.0489117756902,-15.540770648907515,-8.664132938119973,-7.7511626025769065,-2.824552820184578,-10.536008905728208
-3.7138257689599605,-22.50860995113207,8.91228286000614,4.954850814381904,-0.754581892702177,0.2624196275517008,1.9660729626701539,-8.235206148286943,6.625818859485145,-4.962247542194918,-11.194672956992019,-2.824200406018492,22.670321715464752,-14.656742365094065,-9.072907582214118,-5.7019672189338815,-1.126769492678246,-12.406762263789727
1.7636879816237148,-0.6158248940721602,-10.548267614028793,5.382404698870718,4.211856680128368,1.5990700140965437,6.4723099039260354,-13.38869759462478,21.300160299523863,-9.62344192374087,-14.104377461763441,-1.5903407416430908,25.021628090014488,-16.604264527186917,-6.455285182953053,-3.0675393763621233,-6.462497635749976,-12.909980714351388
27.648613267933705,2.815383908792974,-7.74374344389057,-1.5140599202999114,-2.1563209886368515,5.086893507849826,6.38885732618802,-12.294437487298005,48.4705165332693,-9.498624898355704,-13.695020953450934,-4.070676868944221,19.16513106915029,-15.816900047457622,-4.717529285585402,-1.6057093780217457,-4.4761336066105635,-10.385480055558567
-6.919797148374762,10.246328833424514,-23.592676951183975,1.7461591662364713,0.35604333711410074,2.4249081299728488,7.868203782474348,-12.667399921556587,3.858276211811153,-4.685507088307676,-11.724452487489188,-5.968302735930564,17.893963314512618,-18.74011345810856,-1.5158077968395571,0.3437132684190735,-6.886688960283145,-10.106775069125288
2.259129405033784,-6.253069767145437,11.534961175416356,-2.9036537265555795,-6.6106974729423875,16.269634456343685,20.871489580908474,-12.163810271579383,10.707527218323884,1.3001795558023899,-2.919162851291768,-4.451176836104725,20.426833327054183,-10.237008268530516,3.540556813406562,4.636234420775353,-5.881625736306575,-2.601061223206832
12.020538238740652,13.376734185580428,-13.592934749417804,2.7984645840322706,1.5532171291031371,12.245471844740214,8.679455075620066,-14.201699076733348,23.607441694441427,-5.897306453428863,-1.8301631138048355,-1.2771698682924075,12.115052311661916,-8.471976891848973,4.006200474316689,0.6271690785719728,-9.85958928228349,-5.251411987502343
3.6140123673981908,-6.060681489539774,18.31064119736451,-7.319794926382776,11.664004303012437,1.4853256744826986,6.839568100837858,-14.191160668520341,13.065404948231876,3.214618378571115,-5.039439205172458,-2.696406972811526,9.85338343088803,-8.562184556521668,2.8109023460449576,1.6956361893692258,-11.30101168230134,-2.530241886003581
3.797644542374634,13.267941629700374,-20.099944483627965,1.3123726601500092,3.115895031903838,2.9347197486918226,2.558714846943121,-13.401752259663066,5.2537157397389285,0.8034437849013596,-5.222666511479046,-2.556478664586317,-0.12793857072542814,-7.675608496419516,2.5914685152048804,0.4196559197800423,-9.42470740488993,-2.6407957965436735
4.465717281294876,8.764033425477788,-3.432094245424803,-3.043833697147452,6.475778234337161,2.530861013985831,11.462183559440597,-14.567895630172048,14.723403377570483,3.8615619625673525,-4.918951250019155,-6.912191325941429,1.6049547797568442,-1.7106747626439232,3.6409194217867844,2.3657277386525073,-6.574536855552901,-0.211892237684987
5.422793213869939,16.268027594563847,-8.640048600579474,3.7330119351254156,9.73177026085009,3.496375831016165,13.237213739059666,-12.416076329210078,20.282765959837604,1.9395399099178077,-1.7845117249337283,-3.6540100018661894,7.630055595684066,-0.43320792331108127,4.201463050094385,2.650972779205592,-5.094358632050277,1.2407963787473513
15.5556081296655,15.174185764761152,-4.082641578903761,3.283218163610439,9.856501718498372,6.71010430638921,5.4424109115241475,-7.532242773145993,30.232740844970156,-0.958710013257396,4.375964365252246,-3.719624717857005,4.470578378881756,0.8443135971894167,5.835670607609934,3.326211579538236,0.09395878454225226,-0.13822033834702374
-0.9763436710975526,4.7989502625146,2.915853861413126,0.684950880790129,15.053245526872175,6.117186606705243,10.148472912163118,-12.221270655076347,10.295492490617999,10.20604905040658,-3.039341111464198,-10.038789095966518,11.853371654827697,2.2194982108783856,3.5630447429977368,1.4617197819105,0.787096177329238,1.2175558876850827
-5.696023979518772,4.771575055196244,12.843783297789042,-3.4758803955828412,20.634455138605933,7.381691426573623,11.046605193748166,-9.686027570561416,7.835057975734363,13.167797128672174,-1.7644648600234776,-10.794936266526967,14.543815456241909,3.6922972321328715,6.075171727804818,5.065439772133409,4.309316990610588,-0.5513318666855112
-3.8770583358727126,45.26835172154303,-27.912896467857596,-0.8984049856674918,19.76411599203766,10.503538346590176,4.523518878432492,-7.2508413994253145,21.386606244707135,10.46558019051361,-7.326988186041898,-11.945206317062357,14.006765958736313,0.9657220714406356,5.461821987396029,7.106021800005347,-0.2771107024044053,-3.296405458593854
4.187476470203716,-11.798712755665365,31.136447454951714,-9.258711375926081,23.08695131980109,5.9121883319328,3.7630558048545115,-8.822017594922164,27.31700123856297,-0.8303892528396855,0.5858990498750067,-12.806011242064148,15.125102926409756,-0.9797298651875235,7.875480479627081,1.9193243207568784,-5.061972890943455,-1.0605345258063066
-2.010644385812279,14.334911813001433,18.40722011420215,-10.978444132942567,21.716138680858013,3.568650399529753,4.077690741869896,-6.391615802038617,27.091148198970767,12.874096157867452,-7.909070649794883,-12.3031302986255,10.672149137032667,-1.3628432948621774,9.21456937654577,4.446988801439419,-4.869470141285879,2.0546643923496717
8.583645408710892,-9.047588582336562,46.40119169530453,-20.022698140264495,18.386129113894043,1.5196894007624326,2.3424216405965885,-6.502697447380566,41.705502561398745,7.632998195636658,-6.737278908941086,-16.686671466711832,6.507367448111854,-1.8438457145788445,8.893189401647751,2.1888315726250727,-4.289574830843053,0.9709976664491249
-12.760957013225962,42.762776696346805,-19.0633201927563,8.335733306344547,20.90957860174176,3.2809038749362607,5.00270429123774,-5.834890718411024,16.56943114639819,11.669348729629444,-2.539449545224719,-6.425097534126607,8.099592770765966,4.706232735461774,7.985622746551827,2.5668477966552365,-2.9317123318903895,4.96595975721367
-11.453860767801713,2.1853836905583917,20.649579411772258,5.541078128730801,18.251201795663388,1.3325680755053781,-2.2971048938493652,-1.3607955533713838,7.250233996457377,1.935866240931908,2.633608140587558,5.102472085249323,4.218189581929298,3.8340021092847545,6.687231808511526,1.186445924149271,-1.9678295464398499,0.4651342012203816
-3.8039894583464244,-52.55585799032862,108.21484747593439,-3.8946096074888947,21.251049715985,-0.3214299475218301,1.5371094067577562,2.2320280913884734,29.66617110171397,19.253431499450116,-1.3745068767646238,0.4152946953367458,6.386779057715664,3.645011218639219,7.439506857812133,7.227460132366038,-5.206629994192238,2.8984536036606023
-6.02260392578809,74.44053977003415,-58.03222599708475,17.91983436607433,18.58086901653263,-1.9741421392974807,-0.389399193473153,4.357646780532647,14.773271079192645,1.7069829421530578,1.9403681184953534,9.884922073359757,1.6168929649874881,3.3579553294999656,5.652580709264671,9.94754546046304,-11.47627002891531,3.1837580217940467
9.917996461163007,23.696498560366607,-48.20222080038871,32.99551004661318,17.272064213617128,-7.824929368579868,5.009548315264847,-0.7457317314773739,1.5370257949736654,-17.792874968995783,12.968869378357848,21.69476406338302,0.3579241895451384,-2.30072550976197,3.474970068059085,12.178782680899914,-16.870486809795423,-0.6320972499891537
-4.029861879203197,-5.663784790239573,3.91380597920337,18.675782464542213,12.83242927913237,-4.104127525787479,5.233802167956498,-8.781151056627262,0.2115542812512956,-7.3121147648547655,9.640353558361493,10.356148699509,-9.402011008226188,4.637951753654494,3.4458224084307734,6.499189710729423,-15.041571471528805,1.2166720869116379
5.161914035702121,5.695988605530053,-10.963111218751617,18.125333353315263,15.223106597084074,-6.437051380122455,6.53349781606195,-5.197590710850015,5.621055509513492,-9.820195195728896,10.998086525356467,11.22117793661857,-4.127375229602508,3.3728482119045564,2.147162853515063,8.72932648626779,-14.485789080897693,4.433135919603503
-15.339567435959523,-34.998966378731815,96.03714140082896,-17.58240463269674,7.939993928629065,-7.89007671648384,3.7328141936275525,1.704059960786477,15.324148172337967,15.601424291651286,0.44025958741806015,-3.249629098003004,-8.623208595869238,2.0095169362398027,4.266608745160417,7.8338742809366275,-15.105520958417005,5.403968465974106
-16.510169119604107,5.554235231298587,25.203002388469596,-3.485237210604385,3.776314117754059,-7.682015828317429,6.206932564283512,-0.28339664787121777,-1.4412905637008944,6.451738023570277,3.4555506253745563,2.295833204278793,-10.291632786467769,2.2081010707584454,0.6243781032579694,9.47698781820569,-15.045306446275484,5.496388822590859
-20.615898125782756,22.471251903379375,-37.91578032306383,22.52559273427037,-3.4203084483399326,-7.766096506187424,6.4362441677503135,-6.374710033981387,-10.592640847302732,-6.702432686020472,0.5124198715580635,3.2478198505309006,-17.72649500383683,1.4294618802010448,-1.6504686801397441,6.822630982919604,-21.922482985828573,4.026803657259223
-29.21931447694424,-11.299037300556229,53.5580747050025,-12.207313217567938,-8.66926378575154,-7.068155264572482,9.987276414884517,-2.2141698563802255,-6.46568185575785,11.197990214410055,2.2555698003662927,-6.1554684491223215,-20.966667620379805,5.826000473441351,1.1531076428303255,6.023247012188006,-14.447694207962453,9.882078269119912
-40.562608693333374,-10.891981404972572,30.577532235471672,-1.1394003465676406,-17.439316793239865,-12.814935094623646,17.836641896325204,-4.501225853922227,-24.60775563380252,2.6325478727136944,8.685009734481728,-8.726260182833293,-31.24274830116831,6.999115676155608,3.2733452791981517,4.0514515002507485,-9.906388337582811,9.87842876842278
-49.958232599780075,-8.339242654815308,6.327950488502649,9.244207282909507,-26.214716873982724,-20.90487959470908,18.265445926545013,1.3151503419002673,-41.97155655381643,-7.8867160411362995,12.378761254309824,-5.245806142579367,-49.82424078965106,9.245713556018018,6.468128171449555,6.571398861830865,-6.540751483822158,12.805062865350191
-54.378812965189674,37.76613902615182,-48.097325681367714,13.572294248431984,-36.85088564759716,-23.23246338151337,18.98868302761585,0.09803533841891543,-42.93176353502672,5.226478147965543,-2.2884037373321617,-11.144016247619872,-56.78891468708532,7.487558178870792,5.0733517487482285,3.231374096281624,-4.253148524737323,7.138378377896859
-67.10581238499239,-65.44979313187989,73.26191213703818,1.1024694937012,-49.34774409543792,-21.9462220540416,16.295391026676818,1.7108884371801913,-60.39894853278032,-2.950477343070765,12.926449194423835,-7.768247204745898,-62.58609214879713,3.4824565007789996,4.069604845791806,1.7463441164921094,-8.512432690493199,8.30830944919513
-79.54535275906315,-8.411921127635583,-5.771918101876386,17.73383134820285,-56.08790581394028,-33.648034927333285,18.68182415464409,0.9778781544805906,-70.44687482750349,-13.765000486462988,12.41716668093477,-4.200652007381414,-74.54004292943671,0.9413713916654194,5.117112857111545,-1.59467975160356,-10.334108814280043,7.330355226753661
-91.01382591887574,-41.807580371981395,26.524721595184946,3.6021457095337723,-70.05976384445425,-34.118844026489214,16.18692263162322,-0.3431262698432995,-82.35293334194806,-13.349737482772913,8.683951196409826,-15.675819357868715,-84.64276679067778,-0.42870048123683635,0.3056423634053931,-3.5689866007713684,-12.843238631035714,4.985788905307996
-116.74582821856784,-42.978563956818725,37.142019122936134,1.2861480546339203,-71.63402223768456,-42.304310524439025,15.256125889357712,1.3612426180931791,-96.11702560290698,-1.9000480171862302,-2.3748101561570736,-20.904341221608142,-88.6949105076624,-7.1708566438050845,-1.282593554527081,-0.1726035487975821,-14.379651716186201,3.4230920708489836
-108.20544449889958,-44.2494968090226,17.486121804327556,8.637329087537019,-78.5842956859017,-42.09096481579888,6.319002841732479,6.383990236785019,-107.05147746534831,-13.205553232152234,7.952270859362017,-14.026730577961326,-94.70433347628672,-13.523318155658625,-0.7217870775497559,0.9771712861903601,-14.65038309941132,4.4001153755509215
-125.54981711022776,-62.12444819812677,56.42560011509203,-2.9580678161985414,-72.45317342522374,-48.81112748429748,2.9500056804431596,2.4202746343388153,-115.05852438135001,-10.15635372573846,7.242837594289584,-16.23469249670466,-100.71780067493619,-12.454754213435248,-4.4573063842607334,1.7358406777691746,-18.440667377635478,0.49488192388038993
-110.57490005041566,-2.5589238212036403,-38.0346376053636,13.57094961528731,-70.52597370049074,-44.10519657173566,2.9030315622849914,-4.182116688436618,-113.4973290006851,-18.14350253029362,1.5516834535600985,-7.508363784319702,-97.84837260143846,-13.437990825123888,-4.676489886054401,0.05259791411305681,-18.621491921654975,-0.5776354333206883
-112.30483867094257,-18.289536999922998,11.453414607335368,-3.3976907915669052,-69.28691222346784,-39.59449409949748,11.158649286473802,-4.536293921760034,-105.59048151331805,-6.697824015373492,1.0352273646746157,-11.285573691123174,-91.17416167591293,-9.539352354574138,-3.332450304679438,1.7869133767874965,-12.751412693938978,1.8661788897753815
-107.0087546115048,-25.330537290183123,0.8827601092494604,5.609536932348343,-60.04434060958945,-51.39259585300883,3.986050929382116,-7.236101695974589,-100.8106632873611,-15.859029581218534,1.4942008902783266,-10.671502881831984,-90.75382018216646,-12.966078905965418,-6.284610268002945,-4.682477873185039,-20.264316510898155,2.845791576421895
-109.92120055431292,-52.5885202223778,31.52449648659579,3.287338691295968,-62.13437805507958,-38.28798184427745,7.850505883782431,-13.64871084750193,-104.82189968187703,-11.349288989370848,-0.391744310641853,-11.134952616952544,-85.649581445846,-11.803947418871996,-3.571838806935861,-5.195197191553287,-18.11297029290561,3.14247600429232
-97.99488783405802,-30.042788988660238,8.260004483189796,9.069567866065002,-63.349689896828075,-36.60937542374461,10.251844120511574,-10.49263019051328,-96.23701796433662,-12.602527643986205,5.436154254965348,-7.304713120149531,-82.20909404427934,-9.17802544310297,-3.8856336303936834,-4.927098272930333,-13.52403747298247,-2.9079052708050352
-97.01139072531036,-35.135832868086844,5.99278902405063,17.292039121589255,-54.21735445972344,-41.669246741270186,6.893144685528944,-4.408546550042974,-97.61482448477017,-15.419496363856545,10.384031148958043,-6.212105748132487,-75.25638856047692,-12.022031004419203,-1.3664894850081355,-4.757094015736453,-12.942916641611385,-1.2426261562645273
-96.32593940785088,-32.41779207887912,19.254033524903306,5.493436364057638,-55.147714887379784,-34.522033542797445,2.754970853089856,-7.505979247460372,-81.806331997901,-13.159500957333389,-0.0991007790924694,-8.93132786348635,-69.18594956678852,-9.20299879757566,-7.440321448220439,-8.591487012097094,-14.514095568623686,0.5210211601145738
-69.37554552447463,-23.841719922454587,-2.7382713695111214,5.412489869079445,-59.206943505983574,-30.4023802864436,10.044557596142216,-9.530824188911074,-54.86618117757404,-22.424387846566052,-2.3800518473759396,-10.872426075889368,-58.43116772844907,-10.486718488242582,-9.509240858214701,-10.668463310424377,-14.135931107708164,-3.9647048556070352
-69.38358766657966,-28.841403872784213,3.7863928527591657,-0.2362549957462523,-49.20714644644809,-26.575904923735052,10.10929294703765,-6.576729495902186,-61.71678970097223,-13.233259839103576,-9.056653524989075,-10.668150617330982,-39.67155746855256,-13.041129834204206,-10.014651379128054,-9.52314923729811,-14.054530347629747,-6.594200163366391
-41.17334629515538,-27.78753412039785,-2.6765004489756574,0.9497008321634661,-40.8710848958853,-26.07002977630205,5.87892446848343,-5.772667063372369,-29.79831045957128,-21.52419274222282,-7.531039881629575,-11.834136948987107,-36.54016538529687,-10.616150249552376,-10.714352849761692,-8.964188782601049,-13.293292100673,-9.711238883558595
-66.97253585548239,-7.691526047960156,-0.3492635545774352,-9.389330983489332,-38.3002457160703,-29.080100433433376,7.119240510627743,-7.411566147328825,-48.27211080360849,-12.824030107178572,-11.182303417985016,-12.124212112783107,-31.55612554956202,-16.981532431563245,-10.924701973990993,-8.210311831224539,-14.488948737477125,-13.901755779595707
-62.11178670394294,-20.70250666966639,2.3695483382341944,-9.475706784729029,-33.09592191468421,-23.301269514339552,-3.2598501170715792,-10.126173626843615,-53.46519175403433,-15.160567540075483,-9.365732113620695,-11.928960412420132,-22.863806709930238,-20.711330672578868,-14.258996405406801,-11.94908138515934,-19.008679208277933,-13.69690569318984
-29.618373862444678,-15.64771299278351,6.7494951248101085,-12.102622073721788,-25.25796917696433,-21.9173576241055,-0.746242287303561,-8.15463731637037,-9.82998068923871,-15.252374919824861,-13.70257825361998,-11.834279941503404,-13.197487849432335,-23.95402369432248,-12.318632161546457,-6.606062699578927,-16.891361839948324,-15.737403213701333
-14.70771033831911,-0.5349717137827277,-9.67069529950863,-13.75442884998104,-22.012913134184814,-17.311084575484216,-6.922285177569254,-1.3015954977726203,1.8707290909277958,-17.005782730356447,-11.399658645176723,-12.13309391703383,-15.740822792854559,-16.162582553350475,-10.084116079967819,-5.560356958974545,-15.36363449126779,-11.91764414613554
-23.532107564054144,-3.4896032711734577,-3.9216102579694656,-18.630439636151962,-21.407449177524764,-11.337968884778748,-1.0845274223748511,-2.1648497301287106,-4.202529940559181,-20.12783696262396,-13.980566952232776,-11.262826873981403,-11.157434749718298,-13.645855404247067,-6.188202332818648,-5.003302728159515,-18.331769162091053,-8.97600078235033
-20.83698987725476,13.282047106016439,-13.894446985827877,-22.433742569252306,-17.777276069014825,-6.146500256143614,-5.303608752481576,2.634757944514943,-0.900743744959513,-18.17314430774494,-12.558428719814541,-12.250815553848327,-7.748084447799762,-9.177173599153885,-1.2168003637387976,-8.450568722568947,-17.885448643291113,-6.521830381859688
-25.958453326177015,0.5605882287840629,11.388139764859165,-27.898782040338027,-11.610527863841405,-9.549315350198682,-5.614463681891118,0.4994272055976623,-6.974034253952382,-11.727667075405865,-6.449619245358338,-16.757186798204472,-2.8758629893343013,-10.178528096979518,-4.642674464826317,-8.577814139329508,-18.712201597221775,-6.898906940471051
-4.813805329988313,1.608509211403689,1.1242922785007625,-21.06052780240049,-6.03209543801897,-14.612730158736381,-0.06392963604844049,2.9528201033425923,2.5781458446247854,-12.705663763457775,-2.392501670876255,-10.621512052824698,-0.15395432888225713,-8.05603907774406,-4.258571141695546,-5.287370581275112,-19.737747461179673,-3.3688346501771234
-2.911407006197564,12.226637741246247,-1.130634436213457,-16.762981841442937,1.204308026761126,-2.9771032354009996,-7.011654844405353,-2.407547131403807,8.712704488187782,-7.239747812196889,-0.9730011191698167,-9.07834109947866,5.984287453584166,-4.6652035405971946,-1.724636553521442,-10.786444544049909,-12.856445879108069,-5.795033574014832
8.362609545945958,7.024072065935734,-7.193224975625043,-12.467067262120937,7.559741889977339,-5.20931916954714,-7.902662600686469,1.1178487666106012,9.281339852035885,-5.583992825388647,0.34800534479949174,-8.318962997361021,9.581897027488544,-4.693591595400556,-2.2166960886233014,-7.106000457245156,-10.373121738058575,-2.360905531302979
11.332347390177048,8.071572201966635,-4.3679720753586295,-9.832988834290052,14.108603524327577,-0.31297405331413586,-10.647224595605572,1.2241826729846874,11.120263164548753,-6.957146132767329,3.426036830598587,-2.386195179934983,9.174166978847545,0.25736515585143316,1.980245947858561,-7.039190534299156,-4.670418551910682,3.027251408422976
13.615268010589759,5.408159354194254,-8.182456253461165,-2.0247267545355325,15.186907681321244,1.9461495099238633,-7.432717160742037,5.138177881342701,7.0029718021695615,-5.597408693029497,4.354806116944745,3.055875130652737,2.12449866764414,8.918120141447009,7.643517708594832,-3.847618605973673,2.5915371730894847,6.17016584582742
6.715309229472993,7.432509721695972,-6.624776160172964,1.2895818959202519,18.900411742263934,1.3727290106997074,-5.77878261819745,5.926185714299063,1.5195501957837223,-6.68064675239916,8.114880654572024,5.858840588910262,5.3278429241723515,12.206508856842404,4.030800677369184,-1.1446086094513466,3.9908145172985776,10.681185461544041
28.328523154670982,8.480584667508069,-0.573852965716263,4.113884869974761,21.635945366435863,0.4082024111184168,-4.611182933867475,10.228983682285516,32.36605695249491,-12.648308242539786,11.092947064065084,9.538443952368421,7.358407169387988,13.735874268476916,3.6423177817187575,2.9253493062568747,2.066574243042499,9.821937329117096
12.536102547987113,-1.603910850410779,0.3021947539503955,7.620056686250047,21.928809418636455,1.2986936084374285,-11.74253519125929,14.53094459019228,3.1544735114281437,-8.558761778586828,9.578034511781844,14.680696893105356,8.11869770095884,5.595947235428229,4.231972448687618,8.069295040801357,-3.0834642700903743,9.940185528386886
8.362403000510469,3.253749257466655,-9.660784997306335,10.831502825280527,19.876829360189234,4.6301462608235475,-2.465429763084898,10.726527687222212,-0.2738757705424959,-5.935622002104486,-0.04316982441289552,19.03953768296378,8.976087730182385,5.560445480526754,9.901420445595962,8.330119888715208,-4.134906818271414,9.082786036978243
18.834986931820822,-3.0209427136133353,1.6666004788828745,3.9824334161847785,17.823959266150673,9.425981455662335,-4.0263755233068785,6.628404060089425,12.608378685216053,-5.462492870576588,-0.9735108190478248,15.290703117637097,11.004977851917126,2.6917123133800285,8.150500919251552,8.004778173918167,-8.802649191750092,9.007588751359778
18.270043345976887,11.799175734818494,-10.247582841385544,-4.52860046752366,6.39522482614294,4.455558765960532,-0.702476425498129,4.482753768866611,16.996340633692206,-2.7447743499479813,-5.224866440447333,6.2663359285440645,9.127331430447043,-2.8149254109084945,3.9597876775261227,4.358867238279796,-7.3208497757051685,4.245770577359023
22.781275966416686,19.49112519655443,-15.227098463951211,-10.404671540814181,10.005230093819197,2.90267392938129,1.6468022709456847,2.336474177472016,29.784968030102675,-6.766975326702963,-8.402614077301902,2.0252525320639805,12.71845756496915,-4.416386575423034,6.509136505089265,2.079972976856588,-5.646561265551567,1.6333834459230563
23.970297439874102,18.00419976584786,-10.244562317557914,-7.493354139360907,10.48980454636451,3.302462723651029,5.8535334487833905,-0.9822753290961843,32.22414262531317,-3.2710610828151534,-7.77231247551873,3.055811681781414,13.965903082972588,-5.628336161266518,10.818029993458644,-0.4920715255868674,-1.9242153629385115,2.5376455974138814
23.399811367762553,20.42464230584495,-8.679091316551668,-8.685480590523847,9.118667923348521,4.385377399733542,2.05428304731675,0.9719684361312653,40.23224265534738,-7.393975258669991,-10.072320961491851,3.6939353313056245,16.77614342210368,-5.474181983655741,8.976217634615548,-3.7478822666569784,-7.970325677163361,2.563968351875537
37.964787780924624,30.36589384104608,-20.98007079369855,-8.512226722848158,8.626405894053054,12.694490345666946,0.014822053477834274,-1.273542939671457,52.3445671427275,-10.346513766417525,-6.9040489407622,3.7443796698371035,18.31726954740074,-0.6335449925357182,7.429135804841994,-5.050685006302884,-2.2024570503330843,-0.7290824285875053
9.949684244113413,21.06983707924577,-8.670358877683864,-14.395588694972982,12.431207991346767,2.838793784047727,0.9070396073900939,-2.347581353504199,22.17385297999825,-7.636411720532942,-0.31828382978104264,-6.2655836790192545,21.030889794990195,-2.239390594983158,6.3721245764972805,-11.3341637473448,-2.7848729945226154,0.8617525244509261
8.69167902063625,12.458753297534823,0.31992241728027526,-7.292313706109366,11.45107255004865,6.3617432336633115,3.168407416892353,2.7304503236538986,10.170402916433005,-2.4863643746237702,7.731844862093023,-1.2378423745957585,20.327254424800515,-0.916557704860022,10.883410076786262,-6.58243327258798,-3.1744272742487727,6.652877850226627
8.213996559160982,11.271127558556357,-2.2124859942769755,-10.34729130223231,7.346348719288002,-2.6159562563995813,-3.064511423850572,3.315910756936769,8.03346860706521,-2.0253752895869876,3.671936697916445,-2.7546831942202035,13.374452047250642,-10.825399565427032,8.853455201107906,-6.420715887074858,-3.6640140462784387,3.851138126794908
22.18890415247607,27.077518019091723,-23.494266365939023,-6.079789729136106,10.371266041048806,2.370949747255965,-5.779820724711021,3.9987660032366303,20.743752153913455,0.4849523367082931,1.4670740906953972,-3.0034125048561355,16.57914492643662,-9.406958104276137,9.755082434721313,-5.966108190167864,-1.3238207009991712,2.3199733535663594
21.807552270484344,26.869706695153408,-1.6104214941558892,-11.38460035201625,15.838418940575238,3.6464177438648413,-2.9267144781509096,4.779068235094256,26.91436343816163,3.7750818424827024,2.4844910887316,2.508300750059936,20.956981559001804,-6.1340130126704135,10.463264792628376,-3.949042897691247,1.4047909290464027,4.696150462672968
19.86328861252335,13.08923376652041,-8.925347420810677,-4.972336727205677,11.736070323341924,11.269202979900388,-4.270973915544289,1.164613453536934,18.63517792875058,1.0089865693318405,-0.6001170356663641,0.010790768583508914,26.019832328465434,-7.54961079888647,7.755316547889636,-6.326625236346965,-1.14224522462019,1.3115608264427696
13.231248962062807,32.22127864705723,-14.18857845034815,-8.132385693773688,14.861515295035812,12.836780957533705,2.7852415470262595,0.18681084431064376,17.488705901023156,0.682906215824179,4.127519877261996,0.8324314708629599,25.713074755374585,-4.376243114646583,11.006399442315828,-1.6728824392491448,-0.07799083828145115,4.861718002168596
24.07992332598309,19.421195366787295,-2.067861077232724,-14.90762317280672,16.3280620354443,10.692946368585762,-5.293592029529901,2.9199472671666515,32.65492175755394,1.9179385465578846,-0.32501902959590145,-7.72220683180893,27.84948361966508,-8.33281481386029,9.181206514262499,-4.050511678510639,-2.1407449761960375,4.213646642626159
10.904954472924373,25.861731563148894,-15.72792868599225,-5.961813267515308,14.280374619339042,6.107259134974779,-0.28439697800223174,-0.30404203631432775,11.69176284327566,4.030497890309942,-0.7739128617547937,0.12859621071293947,29.401822545485828,-8.481634138432135,4.037593742631945,-5.158587409796963,-1.1779840474155936,0.44158860423758517
33.863691797236996,-14.083024057048757,24.324606404973647,-12.154797096011574,17.312493798868363,2.302434298181561,-6.992249189943486,1.3549033766722987,35.06934765199784,2.2353745388335398,-0.34418329449130747,-5.010061847209707,25.682671419900757,-5.799252756758238,1.7280143936787242,-7.6338507731495,-0.9006153356779052,-0.3020120854121662
38.46329672446935,42.36263290227795,-35.42823664519587,-9.755737626861894,20.541690550398823,1.7199252425203824,-8.620027917692564,2.9162897937320102,36.67352340395961,2.0990802527751597,2.1360885813370034,-5.2667368834001556,26.36029562725992,-3.9966382215516347,2.3501408265356982,-8.155920563390737,1.5235232661389944,1.5922196941556042
2.633299178392896,-1.3862419512404571,41.83354810278815,-25.034559374612,27.483799750040166,11.879388052090029,-8.195134319101754,3.305932830829146,8.887120197863826,23.250842352945604,-4.4660535794078955,-9.62586301608884,31.23952635237724,5.2271447587638455,6.587590824197785,-8.58027562158512,10.196145210560712,1.729691398551798
36.53180782638228,45.10302931867824,-54.051036488472214,-1.8380527807956426,31.302933955429225,12.858653994263118,-6.694157665043125,1.8402787631579842,21.730867944388496,2.701440949840615,2.115380993715952,-0.8019420121662968,38.56266835599106,9.664906820371662,0.2800046539313463,-9.199870782589171,14.277330354678234,1.0869858707037179
28.92683286573554,-7.137197664893321,28.583516801247875,-18.390057334341193,27.897620477566065,18.232159317393286,-10.855494550692974,5.257761791507915,26.57133855902628,12.034022981082437,3.9113941068471823,-10.533660979218926,36.6109341928121,10.195596518114879,-1.8262873474688526,-4.448196327784644,15.23203438199467,-3.7539126739618043
25.620028896300013,1.8565363354360045,30.553550055163143,-23.322589991417413,22.346212128794765,14.523146317834847,1.87977981243662,3.987973165506542,32.19785130939889,15.798853078707285,-0.5428543927070641,-12.746324699927342,36.517444775133036,8.284109554745212,0.757014088594107,-2.821456993998877,19.50575821697964,-6.249930847885141
24.951386909890424,4.309838626878996,34.37983752885181,-24.44825688217339,24.316973341092023,12.864607829315474,0.6518056954114008,-0.30885611952767666,46.81377505472538,14.484245105687698,-5.192558724320065,-16.912655252653245,41.4073833735338,7.055523891016158,-2.6147751490650464,-8.323601369291447,21.4344434285179,-5.61980225465366
28.09297030793909,50.61418013604965,-43.14203211423678,-10.634061221613047,21.89580571953097,12.279976889847752,8.410137519721118,-3.335736476391834,31.063155126934053,2.914364832576661,0.5093428667347231,-9.555805718112753,43.761236525794835,3.7754537254242875,-1.0039796009101183,-7.282526997697243,17.502502221416567,-7.430013931379516
29.673771700251415,-13.920224471011963,43.79245574128837,-29.634622226455388,20.25871305340236,15.01539190584457,2.400506650786824,0.08324093042204717,45.10326987491036,15.367105860142212,-3.945249316253078,-26.613745674731533,45.4346306664683,2.3502402041677506,-0.856002548271797,-9.17101578200318,17.085168786870216,-7.188306007972492
14.068718637647088,19.40128854185857,-0.3290384511075404,-15.335632840142233,20.675387107588087,8.668330172031032,10.748326390704978,-1.8684622816420142,25.261378870131963,4.283176347924455,6.93236053280803,-18.671579862611356,45.353456779399735,-0.638105445137219,1.1495257488286068,-7.641295694502256,12.565230759276975,-8.70332685718127
24.735668974182104,-20.71288597030818,43.63743572712186,-19.78865033782854,19.33731466694646,11.793772484459197,-2.875099129384594,-1.8664678829696597,42.82773418608772,3.159209549058274,3.258929443080881,-21.374304785060776,40.5881054586561,-2.064502839241113,-2.9953238149636974,-9.13875866549159,10.290532783477017,-8.166421457407345
26.90862810093621,35.27115791943365,-18.256412651580597,-11.743178459369963,13.705530575973594,-4.319646739907674,9.480163279677106,-2.3521721343205235,52.19626849970909,0.7645944964726681,-7.641186697117147,-13.139481389644882,31.236353844453077,-4.272704501405586,-0.7903559018856035,-9.659418459829592,3.42512470280841,-6.554164397431735
13.65405461084069,16.7454152112275,0.12504955819099628,-6.433804097457676,8.272424341914729,8.082717265745964,12.16902056499103,-4.302105692653846,39.792648730904936,1.493959395123202,-7.408307512831498,-9.787585330393163,34.486080141439245,-0.4266348656564958,-0.14584384621807978,-9.691544949655494,6.8130747381240635,-4.843130618406947
16.710869332952164,25.957604821255018,19.288401790804862,-13.82159507118126,13.096873971388005,8.472911978419273,10.757945328881046,-1.173153744759231,62.16079463344867,-0.6097872676968397,-6.882417095051331,-6.53330939686631,39.59504536159362,-2.63581946220563,1.7702894528239765,-7.574937818370065,4.145632024201831,-6.451338927758355
4.7310899911792905,7.633508784146075,-3.345151264588006,3.496385823828266,12.358453587534362,-0.8052674325142317,-1.58912350594876,2.3471578633120798,27.600171791068995,-2.12859322664908,-12.997190109800602,0.041444879951038516,22.930185260476893,-4.650128210332996,-0.31547231305192547,-5.653364224794198,-1.940352745985507,-1.5153558487131904
8.672369429840442,-0.5309242924233466,-3.7121531883942556,7.824274629172329,14.065223105264725,1.1469445768480626,-2.9968720947620033,6.649505206217061,21.756697197156907,-11.265676580438672,-2.9006906789409532,4.663236640423857,26.582091111412844,-6.957814660545393,2.6790413733623524,-3.438517030746102,0.5671140992278807,0.9803078609083486
-8.086798880879853,20.89825475627719,-22.731218694190876,13.127152870623068,3.7639593526114297,-6.276226282823293,6.144047981341529,9.390147044926584,-3.221847641104354,-16.399733479671525,9.930337526535242,12.898633646077318,17.15191743413369,-5.945506866333557,-3.211226615650558,5.0267441438241,-0.050804742115698964,1.6215995750898666
0.8411543411552489,-15.48257464908038,28.270858202239133,12.373688841587,3.4277733241701505,0.07011298522843967,13.919371136059384,9.787865370120088,9.989700169886508,1.610186602029131,0.30022178084690854,14.103018183146723,20.421405621889214,-3.2733504656384804,3.3031098130661882,6.753957846180173,5.190494172615242,2.7523055740367153
19.44049901613971,11.519897823192137,-28.443032063438874,18.943019370153028,7.783263562457531,-1.0057589633915704,5.973387616755903,10.96775114405835,2.0154992922840655,-18.27196979204738,14.10812392005752,23.608730725761113,17.73802163502466,-5.972666450287784,3.1787891090874236,8.77449906597658,0.5682058212591647,2.1262979206641273
30.52360866284216,-14.795274491448463,39.16187813330499,-6.032608893719968,8.236662445462798,2.9963565343634357,3.5954621656906327,0.917944953802766,49.028646915474745,-4.4630443565580435,0.1814118023916128,4.110589049680675,21.50438911384523,-13.359814017889427,4.6190582576814565,2.982792745604682,0.4381088902254626,4.626463263082214
27.05925814971913,28.620711773390273,-29.269969780997286,11.569056789816814,11.721779988344288,6.217002632352786,-0.44110124255883054,-2.0995138420518185,35.59774927320601,-11.846651631957936,0.1223061187529293,14.105653171939032,22.150136473068333,-9.125913652382856,-0.9699680192584736,3.3439127345834008,-0.473224000324761,3.123785753702808
5.141266303295067,4.070491811676826,19.09728964839175,-1.8858909650252986,13.551152041265844,8.851501987465578,3.043501072851872,-2.576840025150415,13.188485679574278,-1.652632752999751,1.13766598523662,13.749637886539045,26.609046510732693,-5.478145700212807,-0.11152668384708164,1.8499409496857488,3.6937618034511495,4.258990432859051
24.438636957139707,-8.464198405648983,37.581706583794954,-3.9163058578633185,17.0452460157272,7.87247142459246,4.185812839615668,-4.029671679326462,28.188328136581177,-4.643139244167429,10.063555950991486,16.031094434029633,23.943531878138458,-5.736835932463682,4.948248188657702,1.9189144662037787,3.9546440685617315,6.860182645837341
21.18098649363383,28.32194266978043,-22.254982598797675,9.481809415432718,13.024335416306986,8.162804291819343,-3.4596019242479814,-2.4540016170503476,27.47150661831013,-17.693086237678408,7.759081336581697,19.192254262849,17.083400628755243,-5.8003216841189795,0.24429276049361714,3.746164461627237,0.21185448563442166,4.677264755363031
6.501413977802969,1.9272412437174609,2.675623271663122,11.94089555208997,11.937896310152958,14.410078009867815,0.12706777434153604,-4.5881748016474555,-5.759074391747205,-11.114483010462049,15.611309252620114,24.307422194876345,6.614671364006195,3.999551044588326,3.2573345780324656,8.015310306018716,-2.2610000189341086,11.28465986664584
-6.41617307066497,8.349296762733665,-5.206420116256961,6.683689046121833,5.680430899554599,7.278065461047428,4.594075154961997,5.48605876329063,-23.35811803111989,-8.44280670599329,13.405109128574175,21.80620823048673,-2.1890694633691297,4.912533980037564,8.127900359580533,12.187265402538292,-2.7802268195858386,12.912623331230993
9.088896837561665,17.60722195461691,-14.748319142950525,9.237802143409827,13.783578577344665,-0.9283531467141315,9.160131392902395,8.13953089371821,-7.161258461525229,-3.8185542074844805,11.785195883566875,20.380218578095267,6.004508175017712,-1.3034956555610746,6.457414651274438,18.99646054645444,-0.17384514670754825,8.877547157047417
12.19579250702859,6.653827175572207,26.101475922838027,2.415504599105482,6.266501189398651,9.029401451859403,-1.2140829619498126,12.552105959173012,3.377798683940952,2.9536291193324278,15.732135104870425,25.303037296415358,-2.6917703624756584,-0.39046987583803183,4.495962098739724,25.220203777991387,-0.9848363008208493,10.605382601626609
22.338504081007397,0.7825022495760656,0.8372550762360986,20.00640693988637,8.813269138569959,5.998514106333228,5.210169615171241,13.547959724728821,3.180867522194948,-4.532717503954366,19.386482813875165,25.930035514605215,-3.3751237744781335,3.8429973663286763,7.810022253704155,25.292016739186533,1.4276126942948815,11.26008298581639
36.88036802803328,14.153652746464521,-16.22346769115498,21.77555305133449,12.341793992561145,6.28783085938527,4.3113987523773,13.861544087685386,28.186008258818994,-9.773396053601264,14.93563981514737,23.23785411432731,-0.8307273626585143,4.365586640273451,8.098674665009439,25.169033749324534,-1.4326355917303293,9.181461326326177
27.305415203267593,-0.7920093854805721,2.9470525738556783,22.566952608985023,14.313052541158312,3.2566282975950456,8.394450627616722,13.492893389859821,39.720762873108164,-18.53017291842935,9.703956220490943,21.132864825472975,4.843811516830964,3.0328327754328095,7.022087483655826,24.55829308025193,0.5909090490279141,8.471136778056866
2.2076131696115624,-15.245421237233042,8.933972704347287,16.13054374083492,3.105848354673892,3.838608355561271,12.967039609203251,9.609966667648962,-6.356164851764738,-2.775236097542318,3.59379348002831,17.564315846854242,2.3202418302116037,-2.20603913566237,6.9240321622811445,22.483228130200462,-2.4627584155329463,4.734504577523868
-19.955643364161197,-10.749242155558235,0.07708429364930103,17.310336742286523,1.474506128670523,9.010350281511055,9.435254491369394,9.537127083546213,-37.58273413941332,0.6744872201496674,5.296709251373342,18.294073184121117,0.6807766905921149,-2.3664795343743963,7.218547084287855,23.92439374453694,-7.37084891347834,7.834989500917023
9.156304125925306,-15.917164008800162,11.533146822112112,11.555362403613538,-0.7373112867791605,7.345899782621015,10.787544170079755,4.973498525190239,4.14740327247387,-2.6144707128711007,3.191450846558089,11.603265936703906,-2.7113031278573274,0.7937095151931279,7.124354303593314,17.16287050012992,-6.613633665065666,8.104467783509804
18.741666469629948,-3.2096798353645752,-0.5461921245841124,10.877557092715493,-1.6740424370026759,7.43913874681973,7.551076861853584,5.684885951266157,21.664784131104327,-3.755214300925323,-2.0383595518378153,9.992141324068996,-1.2152350398394987,4.54014830221574,7.422698884558503,8.253446975951093,-8.980227396342697,14.33212804272924
12.218532220237336,0.322038861198628,2.609163098428361,0.042347925159042954,4.426180292501392,6.653308395507949,3.1438420576923214,4.639962161784702,20.535883133526042,-3.2359908665722266,-2.9707160679430533,0.862905906025409,5.169013728763158,2.3298049672000585,4.695542252777832,6.668931958696199,-5.68135255642899,5.033258959630357
-1.037892758747745,-9.814243157871726,8.987283190617768,1.6087076858562788,0.8639408254719392,-13.76187772470573,17.487986933905034,4.573173117176081,6.4248280586898865,-1.5450476411918368,-5.465065849989006,0.3291403923576315,3.062362091602335,-2.3216054360491647,4.411699394182701,4.010767102064163,-5.115494853885915,-1.5301510288657427
12.273738837699833,9.741529848192949,-9.927919279247286,-2.1970372910479092,1.6043500174619965,6.741378373501236,-9.280715397322158,6.070493643898224,22.20334104037678,-0.04955147073111377,-11.181573574540488,-1.0819038794962612,6.918181460907494,-4.1405288896299615,2.762499211095383,-0.40464514487911796,-3.2786080430993736,-3.5026142953506625
14.750565509487608,6.449511133284206,-15.268691067266849,1.6136276907839644,5.670880998334285,-4.494283423709153,4.870204256338761,1.905278510040123,22.16756929184214,-4.7065829860380894,-9.866159965379108,-0.049813074125490076,9.412163777961318,-3.322245219031784,3.7518890695776843,-1.889727287546977,1.9778559656589756,-5.669369992477463
16.353724729155612,3.7475741266648264,-0.19901768925919816,-5.318917046281984,5.641592552150213,-1.4720695131194734,-2.950871590242752,1.3550397245927828,17.25514471938875,4.30842053482339,-3.9602522996935803,-3.019948834229634,7.907569112759088,-3.8706865482251542,-0.3351132043557268,-1.128078186839537,3.134327844370878,-8.323401661414668
16.009024290958173,6.81159321742133,-6.51643921883493,-1.6075907406758208,6.008784251749139,3.014853593011722,-4.618546893430347,2.95493704430306,12.837203484883098,1.7021457799556554,-0.6905074497319044,0.8477457337706991,9.533428174666907,-3.6373478435491644,1.1461646627410342,0.3177830017343153,4.194850406197714,-8.827961059008617
18.89236227044793,7.535988521092247,0.4475148545089047,6.009258403703986,6.381865144275835,3.985938041200541,-7.652501010216154,5.630760355798332,18.777133275091668,4.076449821443321,6.9744474498134545,3.057093503412517,7.063080523264723,0.30753733984978915,0.969027825453745,0.006416842451383076,12.483828382742958,-4.643958088233122
23.831878504980285,14.416994383010476,-2.3544093026717876,9.62138948740164,12.132047416918892,4.273254636299162,-1.408073851489787,1.7652301326258772,21.7934328813281,7.329748640683588,7.120383359239808,9.272288191476088,5.672395393361416,5.815532410197198,2.453816725467987,2.820713805290142,15.598801700963456,-1.82618417790529
32.194808908609446,21.106867076020436,-3.300967674520037,9.619469700640943,17.692872825226882,1.8259866233654372,-7.467659764312751,9.034420728105168,28.62443338357012,7.848746693482097,10.294351157403012,12.852646776301594,5.068405278321215,6.24594414006134,2.4754603332165956,7.2958106607496545,16.371916404053696,1.0902148511608725
17.51592825560221,15.789027878425706,-15.673639859292347,8.542636687289313,21.01355822765509,-0.13316533733770175,-10.206054264879167,5.758336411855483,5.675814791481727,6.024115511010825,6.0469872855426345,8.427035373994821,0.2705678814727044,10.19268613474489,-1.2121933155943143,7.181614336635935,15.29153137995145,0.4918903181476728
24.034209952314576,16.627822771997405,-5.682874566515245,0.726778084435816,26.39107004631452,7.282647791440256,-11.283473008909363,2.1910616806750998,13.202341046440097,7.1294133183263,7.855074218267112,7.519107659203243,0.8493409550020203,13.74948059409353,0.08237014077066807,9.90011481962121,15.775736285344669,2.7265826730264804
8.780260209714026,14.24811353134844,-9.462062284141071,-0.44895898285169467,22.790105956545663,0.7332202518688087,-9.137426336942143,4.192081937587933,-7.781328906175606,9.11386747576841,5.659878764879644,6.124935139600532,1.9218335111029887,14.377257375029586,-1.9417822629314152,4.220673185827387,16.164416814144516,1.8371567542501248
28.883863611670797,2.106834941912215,1.2118574298067428,-5.726889045582201,23.492137388207436,-9.82036487344245,-3.670290777365298,4.144113670755563,8.741367028483403,11.684544272200114,4.246643954402831,1.803111682723527,4.855246764323606,11.197127176959048,-2.8900777899518637,0.9832992567941012,17.43421613176011,0.4603581880351393
23.308933890980047,12.528700949218432,-10.47810972108808,-3.8763349474181945,16.485277545041267,-7.873956456790147,-6.894002699935417,4.488619839718556,7.105442563829175,11.423461880118124,0.3926778550005787,2.561607872745679,5.938576308780874,2.9395689664321756,-4.129750861206913,1.4575438139990808,15.288257890644761,-5.212478583141893
5.434577473831887,2.446648737063139,-5.76186695746014,-4.858348988342429,6.847740639804499,1.6895509973781861,-7.968587326245606,1.4169672858411255,-15.13062431872362,11.358048853324602,0.8363777726191133,0.19720795787273815,-0.88297112406363,5.522823172284647,-5.953801219368403,3.299620767897824,16.757962024241813,-6.782801923969757
13.933250184940613,6.431517567712808,-8.85855966823691,2.9483772532108437,9.03288044257238,-8.864648748034206,7.266293260847644,0.39800742884615126,0.8230433829206554,3.6757240886763167,2.1597357962804264,7.796082069749337,6.656552772842382,9.864747917914547,-8.264598084307783,-0.4241702222437036,16.081582906604524,-8.352251251631952
4.663638912719598,-3.6421237534595186,-5.510183394766301,-3.3080299230633425,8.001409728195966,-2.8172539781569714,-5.2330361530731775,-4.134733666931091,-15.542529258071305,5.759602905917266,-1.8873306771375065,3.873558870720336,1.9942232078851134,11.277798776981555,-11.452799789801356,-6.002836265055903,15.993596680150882,-9.72552572295958
31.825769568856376,10.214582410542118,-0.013704061813938129,0.7869021526034322,17.42541342434229,-13.762536418342567,15.862450835095684,-5.149882163459455,31.184179402914857,6.47673994186275,2.3672745240826045,2.7853562013250794,10.716345630571368,17.281647960021235,-10.733204832311433,-2.8893430806693576,21.767579088245007,-8.461196769754794
22.566942852602565,1.8095205008581559,-8.873304859866643,0.38923475244823524,11.620903762186101,-12.110210466098644,2.582932708803674,-0.20597869808278624,18.442611156069837,2.7021239344315875,-0.9946478891118993,-4.2576939553509945,1.4747600335091668,19.18478191159689,-10.695755130318737,-8.076139508001948,20.805737770895337,-8.563246965281254
28.157441896098476,-3.5639604089446113,-16.952060915339857,8.487485221883272,7.775637503166365,7.901520341875357,2.487694577159408,-1.0219369022493305,14.495428219109773,3.2249873015523183,-3.281546874597086,1.6900371476273737,-1.6091001096309654,23.13966265477263,-4.016148654819748,-0.37149837039195965,23.06921667089423,-2.1214148741571024
3.77232826390059,-4.44100094079705,-4.718448783175769,5.745459049413651,8.819337990188508,0.37350738508070447,21.04553560920808,1.28911210222192,-18.841647682231716,16.053299897575076,-1.8566514478048388,5.003336821796848,-0.2931053406370161,28.658024944416898,0.614046908053699,2.5485265748449097,28.069779859866387,1.0985096878237868
17.381348127541678,-12.735853169392499,7.319381794429036,4.272754173340924,13.77541563728508,5.345412808645246,6.595477072428218,3.9927654712454457,-11.450464682825363,16.967976664222487,6.69807114270442,4.022047801810317,2.6882935584339442,23.532673768149113,0.36272796349583114,3.125375699505488,28.678463401441924,0.4129064526594888
19.081350079460314,13.056013680270773,-13.846909390137945,3.092831475471808,9.557717795172035,-6.773070524365644,24.17753980168341,1.3272297845679066,2.7816322273422323,15.34419446157618,2.2651381351904787,0.9923210209474984,0.10838696027043682,24.072473276706376,0.796356265954618,3.3122003541077714,24.504685753291085,2.364827637705031
39.43915538061703,9.457058774376634,1.510280355350032,2.108071619129921,4.66244913859131,2.0069058559316426,20.177590488939465,0.6168481828066579,33.034357919173075,14.990638252367347,0.7627727540450016,3.726797203878287,-1.196822941196821,15.92175625830428,5.821211698781925,6.917648650362281,18.380569130772724,3.9268666418372336
51.89180213444216,-2.926945374481331,4.562057468931097,-4.24797806076576,-0.0314925935927306,3.0716110694462104,6.998128313470215,4.303076196439844,58.70181304738921,-4.0148385807410465,-3.766135677530775,-1.6419026210025027,-2.9852178027843514,11.678390824287021,2.44878482663017,3.199365137614382,11.966341214948795,0.802065957521945
34.563894829900434,-6.029328363524536,8.882824611853522,-3.865719145102865,-3.0592663833204163,9.116537733588608,10.81139399884121,2.7178089905181295,36.22852592905792,-0.851269028992367,-3.7042720517032555,1.8786870847516042,-2.034137212525323,7.631401535937313,5.815995113963859,8.173214902236442,5.750335171852678,0.6077120902419328
21.6355756971817,9.232067298784312,-4.2777272660894505,-4.069443383553293,-1.7841414480442204,1.0984123336941107,24.097708140184974,2.5017837605403423,30.55677084525428,-8.429280640729917,-5.2040626994561805,5.597044841241025,0.8751092575713955,5.8316186878583345,7.914877367378242,11.292157473553079,-1.4392990250149111,1.97657916992578
28.243722591901083,-22.76877287265995,17.62024336135135,-15.601463312451873,-6.6555272562787415,-1.4512318820353212,6.524390903311141,-0.0559833094292328,20.494692027356177,1.8648745595882217,-10.902255371065456,-3.963581447753839,-7.246008080492057,-2.314822020663332,4.155487069544533,3.766991487165613,-12.532252309052296,1.0999975417769128
36.12626125337415,25.997434609795086,-35.58121677439149,-14.828566822717075,-11.521020481014837,4.494979654959064,15.221187410816139,-7.787556914243247,5.260898239748265,9.13246952191084,-3.9040498393054124,1.2245943436899989,-8.23320236984734,-0.8896930192014132,4.108251811810156,5.422233247743678,-9.168829820909437,-0.8501579813555185
30.92742210308918,-10.975771700143962,-12.219659351267067,-6.145313111919357,-12.474348803028768,3.409450287123663,8.585867847083529,-6.727870968273505,18.351861977232605,-9.869009354338436,-10.869998016424987,3.9738233332711523,-13.317169056343662,0.43890445999236327,3.9644885935868492,1.7068743656583552,-11.759461067373557,2.278531883083939
34.327136822347285,-17.573353914793337,-7.999691539706455,-9.96213065282897,-7.855370868874157,1.9328897656039952,0.8764301449432645,-0.7832263382858766,19.630116713907398,-8.166161309188322,-11.584936574403997,-1.087058115316525,-7.556331712253829,-2.9189291967043776,1.6733535635338481,2.9726300488015864,-9.757073437229792,1.4038786808738455
15.75844134551226,8.450800270904095,-38.05828461793968,-3.134095716779845,-0.30088879376651434,0.6512273475263182,-4.879767440527257,-1.8678590738381837,-3.8929551677277487,-1.8724865238927881,-12.982553960827982,1.764856934123836,-6.283015801030746,-6.666240101256884,6.219327353344217,0.33264058832878796,-10.974250948506995,5.412717870692252
14.089020158550507,-12.787356828955122,-6.886190014358139,-9.391999752437929,-5.729160216340347,5.033278689527745,-4.8741042442170865,-2.6574308939005284,-13.056740792489663,3.250234450613116,-8.519770493818228,3.3497503984710137,-7.934760156757569,-3.283369774755162,1.9771399484707315,1.013573318103811,-11.992938965828554,6.297095597355759
29.025799356109992,-5.798408828157502,-23.176493524329313,0.6591765044973499,-0.6047185872186489,6.875775219905661,-13.462298726774982,-1.2964374280601874,-10.888773655957053,0.36598508369262506,-1.126307289667374,12.359169370027683,-5.28495706852922,-6.247074685212075,0.8610039444621291,2.183348287124044,-11.641212321347172,2.8850995489880136
23.556390241470236,-28.298097334646272,1.548696647158378,-2.4731649212440523,2.767509219361573,5.9833824486242655,-13.065987732861846,-3.4490207460185847,-11.45191440928231,2.170296019995558,-3.8882904410056733,7.503733463004518,-4.974400278286399,-2.9594954849015735,-2.2073149334513653,2.377093885738792,-10.212013377817062,2.8916715042393504
10.571504930773148,-22.277742294319193,-2.828897457498271,-5.116900813727881,2.4343140260851346,3.039684937272375,-7.884483518528482,-2.7674213168638673,-11.132975148932132,-4.618261839586927,-4.4031758649871255,0.5023772187062825,-4.757031499978341,-2.991080624236494,-0.6847799462705764,3.2549861984456414,-8.095943653288689,3.4847170499212208
30.696649447241896,6.4031739330467925,-19.609822599498514,-5.51415221924626,5.134022804896029,4.880704267789381,-19.011886697442176,0.2600781565874657,20.341792783351195,-3.3978499927040184,-6.186631122163568,1.2185368930311107,-3.265714406250794,-3.8027195492801535,-1.114491572793317,-0.5541559398489255,-7.832076353047906,2.418087962966307
15.86426085760245,-20.674532262674937,1.5972949990012602,-7.0829003925899485,4.5188226610153315,3.498484914973154,-18.22513838246664,0.16464981238766363,-3.4548636178148016,0.5580353765757691,-7.090174846715282,-0.30887371073750636,1.159658279316245,-6.566296591357583,-3.0081930175582032,-1.628349664493764,-0.7288459617714818,-1.0894981214738744
24.18057242099226,-10.540710842475429,-0.14599447472298888,-14.413019468180593,4.787933982175858,-0.7163635971180335,-5.719581294785288,-3.9326208253737374,11.130673365404203,8.030677062871739,-16.586596753017993,-3.4939060396767445,4.222069438573133,-3.762157957374866,-3.045553013628509,-2.9949902026726924,-1.4348882456386463,-2.643463577344985
19.121463254558737,-4.602262462945099,-17.613038073666214,-7.289317601331022,-0.015830434324300313,6.005878056090737,-16.847343795201514,-8.320734835309128,-5.043433348014069,0.7580976089716112,-8.698926892168323,2.601107747793824,-4.137306936125428,-3.984177713965254,-4.742282073538351,-6.314264285115815,-2.723506562271915,-4.587615076935722
23.831687877073502,-15.554712416682884,16.189354230780353,-18.915386839498332,2.900625736857279,2.180484415380719,-18.014188860962467,-9.191035934306923,26.246507149609016,-6.025076514113474,-12.822133986552261,-1.8483537973052275,0.6911987002939046,-10.74802816725996,-3.8014714462140633,-8.265813729850798,-9.379907683965389,-3.2109796251025884
13.01775800408221,0.5479030728392811,-19.639119470472952,-11.107011247131394,4.845693450023267,8.12024221275886,-27.97042730613403,-10.938118379437661,5.096465979651327,-0.5022406938812201,-15.381781117847883,-6.392913808640786,3.5705534846208824,-8.819096234487331,-8.524060784482716,-12.170006488438778,-13.103162577743785,-3.5917810532793424
5.4298225927487636,-3.4631239554456936,3.516765029757771,-7.692639960279786,3.280198786471649,16.793770359406235,-22.399305637308604,-12.487743340121092,12.269231856873612,-3.9627651926644623,-6.31911004355758,-4.196532913907189,6.551484671199104,-7.377204577756105,-5.335655855476499,-8.651704069515544,-12.916674091223502,1.3989741167775644
16.692979492128195,-27.978444102490094,33.11712401398893,-15.508275441954874,9.922995425419877,17.556350806953702,-30.891141987132748,-11.49612171769442,11.92425021856816,1.5623902808399206,-2.7242143236612057,-4.439042214112208,10.708139991262176,-5.73874480938623,-6.345847968820192,-13.531464685505416,-11.750156046381488,-0.3482956459915514
18.583997945873453,-0.3407184917770052,-6.034521943184049,-7.893315429025358,9.832371566123875,11.579851499002153,-30.105758383124158,-12.064875612298692,9.432531403313478,-4.53254233400628,-0.0071692665603371175,-0.5773777208979798,9.106730388894924,-3.7083979424535682,-12.14061496562091,-14.016128411112176,-14.779451658213699,0.5415307612383425
-3.252956842272809,-24.360144806164676,47.587709806340435,-21.469373442724148,8.281765236099508,6.286235195576053,-32.15273555976432,-8.432195718102427,-4.678892071958533,13.59284169003275,-4.22274393207937,-6.185970970854701,3.505003612114937,-6.169048174723271,-9.829166399088347,-13.523719884488225,-13.313006415549072,-1.7910332119313193
1.280385829534346,-27.67235763128255,25.32888245357886,-5.161412569484122,6.150013819351001,1.8707913492925008,-27.07100400932724,-4.406731611834179,-1.5034970174946132,3.4963489669199195,-6.484073233102739,-1.7332806340150073,9.43044672914395,-9.800330228510044,-7.2241525682751915,-15.862894384869143,-9.889907303290686,-6.564747972985035
-0.23849659951273594,-21.703332693391985,34.90546371474143,-12.485835832633962,0.8002737626583905,-1.080560146056805,-23.552121618876427,-3.113529041342687,-11.901298290266872,3.9481143576719884,8.15048769312773,0.28049482863082265,-0.07057216083257956,-9.426382459726764,-7.938940769781439,-9.510041653268003,-15.936097048499288,-3.9162042781922666
6.643585880509875,-0.10533710732996782,-8.449484589961823,3.3354525779117115,-2.201050561113398,0.5572013468163011,-16.615561689773497,-5.040875127739574,0.0655825461191668,2.0573271333022545,-1.9212479631938741,1.2225550448633014,3.713224944069311,-10.027748896470978,-8.360225342566316,-8.62553673683216,-17.877138304472812,-1.1697553256480517
5.812948070045785,21.30105491006012,-23.680057975704226,0.5049778338541371,1.9311811019394476,4.4402625372958,-16.02711532937844,-7.16137871037667,12.228667703285147,0.5584139176773957,-10.038706806503013,1.190548023757711,10.527675787219348,-12.288033701793292,-6.144251051012437,-8.912441434922165,-14.052839438429412,-3.7942574246521734
0.6874504017014118,-20.473419435297533,26.71429584421074,-9.55126689455485,7.337413180989053,9.20138707635311,-13.192917560253914,-12.111797927224782,-1.6821464163796769,-2.892402233916517,-1.0649289490049478,3.016537515322942,10.997535864491196,-4.878939708114848,-7.345828107781147,-7.538683278719101,-10.908602684447914,-0.26612027142013367
-26.70209402684769,-15.954453943253567,24.079402574519445,-6.422776766883233,7.181510602795511,2.5356712804010124,-15.925602830028371,-14.52095660404804,-5.045379365787252,10.357514770770125,-23.24282804457858,-7.069229522906495,5.708648292780602,-4.499941881681204,-11.379040186811528,-10.559043775153796,-12.155415009682418,-4.5504239073564055
18.176842428890197,1.1660104504886117,-36.46764492144095,1.7848924680086977,1.6586935322514496,-4.13095809779211,-14.654726947356348,-8.04110155478832,-8.603555150873788,-2.1729454070655434,-2.9384582667166215,-1.6249407494336436,-0.4562050808242848,-2.5571612162004165,-12.09147956091754,-10.063247209727798,-7.734523503370728,-2.7797926016475287
-2.7639515396475574,-0.5578392613415837,23.98211305571503,-6.608241333854254,-2.199778057784851,-5.32969684880357,-4.595074120719916,-3.316926779730546,21.042100398664676,9.71230117058916,-15.055296776273106,-1.6470238721440627,1.29206539928016,-3.0545679176677147,-5.283893090414109,-8.395080198220601,-4.188992587400403,-2.0832649196466857
-22.14080378116534,-48.6655065795146,58.94204595663338,-4.062659850309461,-4.198687954894197,-11.9005837383879,-3.2273924735709087,-2.7898765245599013,-13.082721879843486,21.501166110469764,-18.674741191209325,-5.670627293806555,0.11334186381275124,-0.6209898851104687,-7.5581260699129516,-14.050766600184284,-0.24926901119803158,-3.4374419638309726
-18.273866172398137,2.9389668566380767,-6.979642052187151,7.956805806891053,-2.287324783271263,-6.460570981758551,-10.844667061001095,-4.995085863164437,-21.4260476126361,5.556512201006879,-0.3200143985315238,1.831814249072596,1.0857163698105694,0.44662794963191516,-7.683567641201293,-18.43642536741723,2.8150976623151975,-4.107930877465104
-15.675403170920323,-51.11866746678705,72.1192181516685,-8.733986428316594,6.170967425803247,-11.666284579523843,-3.520762614349115,-0.8503865902774808,-7.210755568075058,4.457116249783615,5.6333677258494195,-6.288567321943688,8.506017377820317,1.7108042908178898,-7.2227706948443196,-12.86051733212039,4.0275294886032285,-1.4579967108534702
17.0025467752722,51.860890293538255,-106.5995721430727,33.17101674464589,0.6679584312238518,-10.427650604884265,-11.627246648924425,3.980070267970289,-6.765698314510399,-9.727134461080313,4.458931448622113,7.46878299732394,1.7683479788567258,-4.055139555415755,-7.249999216779276,-7.870077761254153,2.7044201091722795,-4.179202538814188
-20.046400995737308,-54.5342221394109,63.22087487030007,2.7128186549838436,-0.8274341394014293,-13.975340063093016,-7.3316728616219855,7.738442801303293,-23.606727511579123,17.692094360038233,3.2856997115192215,-6.01799616986879,-6.041269980470892,-1.5189451099451725,-5.030865130670916,-1.8049240417026455,5.486492009573575,0.8145644442211535
-1.918172153398075,-33.18950724860812,13.40780628753571,16.69010855543257,-0.4637888219189481,-11.469374964733799,6.924506264095118,10.327070172853418,-25.01867289307552,-3.325635030837251,21.35225481238271,1.9822885524682725,-2.5204203844219766,-1.032340362844872,3.9268591505743444,4.944314247013251,8.174456822260064,3.9528211582837587
-35.15753742417605,-105.59274130102997,183.90932061352987,-29.19554882976592,-4.979599582173252,-6.718438605316659,7.01982054981862,12.917841640119535,6.869659749681459,32.5923764892117,-7.651001766104683,-17.847541414251896,2.467346623828763,0.041425307728157224,4.095564664032989,1.635287406884773,7.25262863257717,8.36059056508497
-9.216111996401725,43.20226580007043,-122.06257888639388,60.46901481248572,0.37134085241740244,-10.074283123649064,0.1809349762911161,9.748946366344105,-53.920386049833276,-26.802291594075108,29.461257349632035,23.654010024018106,1.597580679884544,0.2374765970368341,-0.1301783968584278,-1.4779398086314237,3.4046025945522387,3.783785048077144
-9.153965212581362,-20.30721652983829,-9.767697897121915,34.70343668188866,0.3543119907475898,-11.087562255194456,1.7401074892714554,8.730656574925131,-21.058013142910593,-13.928961989422241,16.964616134560448,13.496916040103224,5.124223221694219,-0.8348275132958045,-3.2815645394846795,-1.270317369134475,1.6109126431798744,7.507799528523169
-40.92839742794853,21.852391190106818,29.57550989057103,-3.072708035176193,-0.4408869004482163,-12.883355855344895,1.9315573119327816,10.058282446416868,-7.533397157967263,19.746730316211583,2.027768575858852,-6.814306116563785,5.234532381179761,-2.9801824705102833,-0.08510360396007144,-3.5036493041217134,6.1684867207515595,7.618364443859324
-15.866359201443291,36.28059316602434,-19.26758369296833,8.56732657690516,-1.5260830801436942,-7.551419380997865,3.977983559257405,6.505145328598865,-8.268505054960048,3.5205743837195325,11.604255889296075,2.857651630451092,-1.0013480402924149,2.395281045764764,2.0371884890961782,-2.0254950678209935,1.1590987234992198,8.998341353477999
-15.219269209232426,-27.218712200120724,41.94821324818801,-0.10405961266990138,1.2978889284498845,1.4901936188160079,6.9028029343386095,0.5126822524752643,-26.388553037608133,3.9951407658414957,16.592075867997778,5.207508629925072,-1.2786680736352745,3.1819905473598835,8.554117644871768,-0.25387238448207405,5.821307135562872,8.229683724917496
-20.920624564010033,22.470648927133237,-17.249386440399842,15.738061382565842,6.566044334864861,-3.6299161823868737,2.6980752256978526,-2.938569104449834,3.048688578743295,2.127160772031269,-7.22788728868703,2.0907372431953046,-0.3827835238627788,3.3838997550985312,4.524022197075093,-4.829504154548554,2.1860695621184343,7.851466997679267
0.9166314795447086,-58.50272468980098,37.322857865399484,9.608629429658745,7.637536832491813,2.1862573107997685,3.6686705083373834,-7.852583760034099,-9.704409808809958,-10.9702304523619,8.114156693247516,1.905877652722217,2.3697820463710793,5.540095359233604,6.353375172213211,-8.623371686184948,3.2418453231146565,4.54330203174074
-29.49405378996922,25.178148478990956,10.447103638101108,-7.749980995080618,1.9731439626937268,2.9228113530931044,9.033321979389413,-10.1277449084154,-3.8072413383745456,16.363899989270493,-9.843832862406911,-4.331608456448766,3.756194307854974,0.0801033303062908,7.5967385042742155,-7.631503755634714,1.8595973382398916,4.457600316386434
-1.604297382263998,12.083472846646455,-60.180781136024926,25.870232504871062,0.4127524798358415,5.025123185712279,6.877780725054372,-11.22892754532534,-10.998735552674908,-17.43451041524414,-3.3861296706112136,7.98800247175887,7.682632845054397,-3.230318769440047,4.7384064244198125,-8.103991654715207,0.4807451074218769,-0.21828365459489585
0.7953810909123717,0.9451978254857796,-18.406089354349877,7.2450593786381905,-4.465749400891388,4.293876126336883,8.823313435234306,-7.2498315798392845,-2.2747063062145347,-2.988806605221109,-3.5678938897285057,-0.5890442581475526,2.3323800086331277,-0.48487875462131225,3.0518698636963215,-3.4977625368239154,3.402203218718994,2.429867974662682
-20.63501498575277,-27.182304720544984,14.089615762979754,7.567011793742363,-1.2365306973035217,0.6313783276953862,4.322879985319453,2.6884525045120644,-9.37408042460767,-8.171132995602095,-10.096151764692523,1.4806730353301694,9.385321991290528,-5.160363165657636,2.1464709081428355,0.034750386493293206,4.764479290570406,-2.246632393291054
-0.36731970323489893,-26.204608723808477,17.384136633659587,2.0310421763372077,2.873610179924012,-4.106907507124098,3.5328813254881215,2.0817558383941943,9.988783759039343,-6.906889108792486,-12.228552031711006,1.9899077644226462,11.458247951560214,-10.225434107713896,0.9479475425943269,2.2005784502891688,2.7120462717431697,-4.384379705778614
9.253741070341604,10.909615050374175,-35.86671212417771,19.44620109085688,4.544183452592572,-0.5458729378287426,0.2032181977306058,7.238909586004532,-1.5113654918740576,-4.37195243149338,-4.203288876566955,13.82945188733587,11.187782846179978,-6.20731118987854,-0.153096068784357,6.613062711031418,0.17460434286266047,-4.178716258285862
-20.09275379301192,19.80388696660646,-19.09851694582236,14.10868216669905,1.1383026036049317,-1.088085829496986,3.806687612440224,5.659710905238974,-12.038261558703109,0.8008670187645097,-7.700382184632533,13.659075119050211,9.355053689129118,-7.949992337822532,0.7964681555938284,7.315085784938205,3.1092415750020215,-8.465710779095314
-8.13231762640997,-8.896965794246514,-5.554600067099597,10.237619754541397,7.499815734380233,4.813454629921993,0.47588676453515966,0.6645101795169018,-18.36935400495864,-5.6464803194096,2.085231724364827,9.584338866797761,13.479570736138289,-4.906464079215447,-0.6956424784350277,5.5762031299199,5.363484189840136,-6.0147501644225745
-13.264453906238323,-22.75076747907836,14.042507250513772,4.805637481688562,5.854884927801317,-0.5173379044275508,3.6875801377208024,-5.988866737652957,-16.6961442055704,-0.7644461385627332,-1.3116978040233587,1.605211495052254,10.084429339886874,-2.643241120406468,-4.2388235863606845,-0.16610420962271366,2.8356688620158272,-2.88064140006463
-4.922463896721177,17.110230796939252,-25.444923652627356,5.430051422127862,6.262127449239029,6.162043082800555,6.70338002954281,-6.585472541999834,8.411139356040039,-7.209647903234924,-5.781614853555063,-3.2469819295203557,12.939233635652215,4.503800873409805,-5.633818848276897,0.7328623588548107,6.365764400324938,-1.1142242037725472
18.846634312539692,23.770607577295397,12.70392804732281,-16.69816065209165,8.916728109158147,10.59353163483422,7.57012800020685,-4.0550543120806495,56.561716173817786,9.295758292140963,-15.71912239856918,-11.51534278231129,17.84456291658499,5.889942539062162,-2.8298421594514123,2.1206701359821816,5.602007880044966,1.2376289809933487
-12.368561687610129,11.293043612885945,-0.12619613863963264,-5.914076979522035,9.32629954804028,1.058162779619912,3.553403658802109,0.03984851716038136,-10.039632689702657,6.465946949225628,-1.8269038963491118,-1.7152015560467921,12.104772489424501,1.4174993333549506,-0.22151819919238003,0.6769608800969573,-1.9947465511556208,1.245158637951935
7.683398815726981,31.43610619980065,-71.25964077547724,24.598516172093348,6.221159246749774,6.364933444819338,2.3681647545468794,-3.089976989408139,-16.09740927681264,-13.648294546600912,14.117358247372948,8.086725988198062,2.9463961200341675,9.1531252440722,2.2887844611913977,-2.5240253685265683,1.1538475698984527,3.2052779604678814
7.907511741951222,-6.817254646313669,16.885025808796215,-2.70061944891512,5.265323712628085,10.20496435827853,2.1589104247760202,0.12987798259236988,2.5478522690813694,9.598464130069987,6.7226443597523495,-3.5942973033706256,4.041377962197241,6.9284841679608355,6.947167591033647,-0.1579532428513799,3.621785718383485,8.289852402186883
2.6592970189747462,18.409783350230843,-7.2783843497863545,-0.407800233158234,1.3804575768526552,10.527406056010344,-0.49238413627494726,7.062636629333486,14.547876000752332,5.697307151197685,0.6963545508654172,-7.558641916539399,6.600381546770926,4.997608556169885,7.308194140867801,-0.42806811781975806,1.1120762196211231,7.319026912589347
1.0207580832934298,47.93659096324685,-46.0921430123194,1.789025768656403,3.5509396536159636,11.043215495175406,-5.683380692526028,7.258902167714428,15.312608989565675,5.312736322144835,-9.137380485495386,-6.833733023322287,6.912272572697409,3.26280921686388,7.864094006907997,-1.8694991724202448,2.6091778649241806,4.00376809676035
-13.317112498691259,17.797308376985153,-1.6055479671313315,1.05778781117922,3.768701640935211,16.43992679424307,-6.773357082989087,7.945327998972006,3.962994723872317,9.811930253232212,-1.4891834362472798,-8.353305818499464,7.906642822322234,7.095229202489248,9.005472047380218,-2.626744720959307,5.2809606834216805,4.984774729182961
8.37673442834562,1.039883833848288,-9.953499352068842,-1.5272764770068008,5.060999606270414,16.07280863910158,-3.56700216261445,2.188194411750057,5.303964713059155,-14.106431349782198,9.57822009874953,-2.8399110288918266,3.9192027741189044,11.221316672874588,6.435361640915443,-1.820880593328252,3.6585335031555233,2.2540845380107335
