Fp1||F7,F7||T7,T7||P7,P7||O1,Fp2||F8,F8||T8,T8||P8,P8||O2,Fp1||F3,F3||C3,C3||P3,P3||O1,Fp2||F4,F4||C4,C4||P4,P4||O2,Fz||Cz,Cz||Pz
-3.1495663264700156,-13.47024317323006,10.813546429901862,-3.590379481539066,-3.8820928282941978,-0.34026930071958716,-14.522725881216683,-5.628341499312512,2.004110894600174,-3.4945357466902323,-8.655427304013559,0.7492096047169783,-4.891215731996041,-4.088145079887871,-8.216758402425835,-7.177310295316797,-2.462930354820976,-11.814398478602008
3.27656505186215,35.74830448485122,43.108767851166775,0.5978377175983822,17.680186383543536,11.347185908084029,-30.71469515033613,1.505029321089994,79.50833850383526,16.230871659936227,-14.658852272571341,1.6511172142337625,41.77270848444324,5.653044063653036,-25.523018151770856,-22.0850279340314,25.103867688342028,-36.43224138858728
27.965104296364522,-41.207168651001034,83.41277690694491,-0.1951499890495385,16.485645494879265,2.916323878977087,-25.231319273734506,2.0977049479447594,46.173524009536905,30.09786347850075,-12.460110348078544,6.164285423260097,30.041669132643605,4.359016929408643,-19.982936593454586,-18.149394420622396,22.301594053041505,-31.27036464382691
-21.077168658830225,30.6675739448498,80.06484761784975,-2.356028105975801,24.273225704772827,3.6645230268261617,-30.88553302871994,1.3256722142539417,59.326728339958976,30.489353829360255,-6.551434112627491,4.034576741167162,40.19073317685232,3.162880075565244,-23.33531279729346,-21.64041253808652,22.82243110924263,-34.90363731989622
44.434240432930075,12.404084219609999,26.22915581677958,-3.3457163459052914,16.335695600964968,4.509670280872955,-29.708241566520805,2.0211326606523468,50.315001012012786,27.952597074736204,-5.331364166638082,6.785530203273864,35.891625577737955,2.357732110826836,-25.03314100813674,-20.05795970455814,21.783753939687088,-32.97642937638126
16.97700481518008,-16.992482231967482,93.09993646746585,-3.5548656498067164,18.064245498240993,4.279929865117873,-32.246405333256995,3.7935827901632297,46.28763346959029,32.351243785946934,2.6260817342442344,8.264634411065611,40.680265360838334,3.115592438955293,-27.5178914552868,-22.38661352434536,26.80312820799508,-36.426461355682115
43.23342066324748,-14.845647407392514,50.49811120387557,-2.104575318717919,17.154178904588093,2.3894127434295775,-27.562277053425277,0.8813437015430221,54.56939435171843,24.544595923297308,-7.8747651134135435,5.542083979390658,40.299025123173905,2.6045141804398675,-27.66453962205529,-22.37634138553076,25.478282472867285,-38.320083096559834
-11.173192846260914,54.489711129889805,43.25032223106907,-5.733247324774235,17.219011712512184,5.771876125810131,-33.33182236227941,2.366713214899022,55.238540845942836,29.435596286508215,-6.85294862366519,3.0124046811230154,41.87732121119005,4.0473313360706324,-29.574730105373778,-24.324143751056653,24.45020402924945,-38.46202411164115
39.20958121689719,-17.192659601298015,60.22379900049452,-10.046300163663423,17.28234662887894,7.005389634570806,-29.925745159891658,-1.1253235982994294,60.795697528358176,17.629484027745036,-11.593857321058913,5.363096217375991,40.7279817359493,4.709756679776204,-28.85388036069092,-23.347190549891515,24.988703664624218,-40.563318993796834
41.05945772315458,-33.40533575198785,82.47314982365843,-16.801588819278532,18.613914847450815,8.824428037421942,-32.1879265676845,0.07347771586044516,62.06146795349498,23.013713617619246,-14.577812113547832,2.828313517975196,43.49213065728519,5.47084022286827,-28.33407677767884,-25.305000069545386,25.43385895898001,-40.91300943866244
30.900796542680126,6.535339229947011,47.98591751750547,-14.670829917931666,16.428668003706562,9.568867926212747,-27.71573312188601,0.1037809025757106,71.53647091510929,13.068475785052438,-14.63288539395127,0.7791620659904721,44.50601435045796,5.1588202174775795,-26.648119003576248,-24.631131853873594,27.34845171555215,-41.17130808996619
87.64141462970753,-6.844907311934062,3.5403651687552946,-11.466655937981841,20.2972457343214,6.992639543286497,-28.03267257424541,0.2352646286207456,56.40813036316612,22.560143616488432,-1.7002935778078445,-4.39776385329481,45.91849576421045,7.680138119185793,-28.58124032374108,-25.524916227799036,32.49057782406093,-40.26400600387265
51.70892508547337,-30.38129854448265,58.61102264928965,-13.829805227579698,20.06342424306133,8.32247397847327,-30.208901992026234,1.2493186696084368,72.04880583963977,22.09395418248021,-19.33535079436706,-8.698565265042326,45.58149434243482,5.612938177340915,-24.56298216447539,-27.2051354563144,30.704087296815345,-38.48409763954426
59.53154865121358,10.04844762413818,7.530889890139749,-10.334332930267763,15.239095960924868,11.702932507235994,-30.923942318995156,0.8999425845058004,56.25093368598927,23.682025485506585,-6.990218566974292,-6.166187369283042,44.76494720371326,8.234838789832645,-28.656054945057235,-27.425702314951725,29.606537090411223,-40.2261974966216
0.8540514819817382,13.270971351130655,51.475109607209866,-13.6757546974705,17.738686152454783,4.0479362739977285,-32.619115991562225,1.9216803252614953,74.34795448583571,14.33609302767217,-25.505627800755672,-11.25404196988091,42.68797541196888,5.780199548587843,-28.067286369908512,-29.31170183063456,25.584842110472714,-39.43553675689614
40.03476174532244,-6.943925469963808,39.172037607848594,-8.619471169717787,15.257500250087165,7.81882378689898,-32.755195517431424,1.1896109998115758,51.43678931243887,24.232612294354706,-6.032828895341709,-5.993169997938136,41.40177071166304,4.206276666777038,-27.679550881795162,-26.417756977420304,24.79168917402565,-35.13554389741772
52.07212006648973,-13.974528182410932,25.01722757787907,-8.153968534327234,12.287974602710694,8.855280925227712,-31.72268042756864,0.26638472576295236,45.52653861925843,14.406357465783376,-4.822635779869702,-0.1494093775124714,39.344184416558356,4.4897820085740126,-27.492831645626957,-26.65417495351791,22.246780458552752,-35.23649649548799
54.44720617735993,-8.21140409350009,17.214119164647233,-7.689338380541949,13.517860545842375,7.15736578334755,-32.25585084304514,0.7146510226761,49.5862427140419,13.373599746869214,-5.468502147453839,-1.7307574454584937,39.05468862796778,2.8221985099035054,-26.237556895527455,-26.505303733671678,23.51685165740331,-35.539107046711294
44.03531264754528,-13.287661137689444,29.33732467890269,-8.9834240159672,12.013637741895057,10.147124574484621,-31.717806018794192,1.2649842672284421,48.088713047011346,14.005533660153954,-6.505514377704941,-4.487180156630801,39.557072260252916,4.574836959850213,-27.03874883086766,-25.38521982457376,23.81691544008197,-32.43002913897416
52.77085653624621,-11.136550708721318,16.757440179306126,-12.524516720091913,14.513868776233636,6.886948209164437,-36.163178945377425,1.4292199977286257,41.62028248477628,18.93912609359831,-7.152361496046124,-7.539817795546652,36.35944080592513,4.669630175213049,-26.6736721749208,-27.688540768623813,26.760547414114473,-33.624208831403024
40.321522763042935,-41.8953358485567,52.815608603294855,-14.503965786269818,14.085031821276129,4.3105938636157495,-33.67757331994303,-1.038646409932702,42.876837734055776,18.311151435508904,-13.952061524103117,-10.498097913903177,34.63801102806339,4.083291027320826,-26.021212349546893,-29.02068375098036,24.437706997121488,-31.89495252824466
-6.593814376980797,6.547138721931816,49.71769837624292,-13.261589359358753,8.774148908876429,8.277583371458348,-31.682820315369618,-0.572001288931324,54.30019662942899,10.07100141340771,-16.35752646749082,-11.604238213459263,34.490791981362776,2.425324135715246,-26.15556585529785,-25.963639585908897,24.270615820733646,-34.85953769982623
44.058431898065365,17.099313587040935,-14.704424053338116,-14.363876913981887,12.44879499446935,2.0885003733459087,-30.081100085525577,-2.4442411281827057,41.41754486490862,9.551143521139949,-8.02094969061329,-10.858294177593276,33.672001526082255,0.8677580174463912,-26.490743200243923,-26.03706218934351,20.888328441758627,-34.90062890567305
62.686757508730736,-34.946147123212896,24.883965419728963,-16.443616928307772,17.98012983621856,0.9780092959897376,-32.77855515236639,-2.3583049635293984,37.23756000183713,16.068173788206508,-5.446434310207879,-11.678340602836782,34.33045019543535,1.3638831118555714,-27.514985621088314,-24.358068670058913,19.466932111874243,-32.0181889801869
59.545537042135834,-17.262931799756725,11.058756278337304,-19.40314705270505,5.055517120305826,12.270497358178247,-32.45068300205019,-3.7320944627721806,38.342575770543746,15.266602442851612,-11.2706829327204,-8.40028081259943,31.290612184285685,2.2536534207887957,-28.93526802353783,-23.465760568046683,18.15115343421291,-32.65758615153868
49.47905348500292,-34.5400628549837,35.91136054768141,-15.332184277113608,14.886695584051763,1.8834696868090437,-32.51532768090703,-1.0966581829317865,37.8968980561365,10.857619359728737,-7.036324915846085,-6.2000255993638085,30.70525352843541,1.3887341399113042,-25.868647125768128,-23.067161135731066,19.28499836560803,-32.03354308445421
40.49554246350779,12.14982674045882,-3.7822935829143525,-9.601896804845103,12.805338560142225,4.290164697942,-31.31212596465304,-2.557471883577498,38.8305996449077,10.458721645201033,-9.442774722247748,-0.5853677515814031,28.570729094070995,1.9919660142513003,-24.076868934913517,-23.259920763732126,17.98579651099432,-27.313931814102272
33.962507571298616,-14.988256875914772,39.929426112977154,-10.513183605198469,13.85090771742084,3.47476885338921,-30.598730829214965,0.08882987373524465,52.569969438669126,12.409918626940385,-16.146186178105847,-0.4432086842646714,30.063214952218768,2.5986180514917554,-24.048157125193327,-21.79790026336626,21.675749046005894,-30.705910946857443
11.520583049311739,38.34499434254336,2.1027488190812704,-7.616656113129826,12.16410686538745,3.929593728609474,-30.96089774994511,1.4711851605997546,45.32575522320323,13.098062275407877,-14.06036042259733,-0.011786978126813175,29.323556003664777,2.525220917740745,-24.415233969242472,-20.829554947692984,16.975954708873104,-30.099856413266924
66.14022091947615,-68.67432705808389,51.58805584232256,-6.478793731794476,10.479519403822724,1.2600962187655187,-28.68743710980323,2.175652626881167,33.895406598551844,13.597573446952124,-6.798570926984777,1.8807468534854266,28.988813846914603,-0.3765611372279167,-23.029555511577243,-20.354866058626595,15.214916608265694,-30.085612361876994
61.19852003509463,-45.807336608694385,16.703184924941166,-1.9237230497299098,11.33641164078303,4.255527798738325,-32.37203012234578,0.3468457660874227,33.22086838814147,1.5061021342518899,-7.251575286788378,2.6952500660945153,28.961626508864164,-1.3213646791615576,-24.090326635986276,-19.983180110638294,12.193553193303662,-30.956077071416622
32.1455111553745,15.050113988624414,-17.003542389479197,-0.3968403495650623,12.000530238536715,3.7361154081700683,-32.736987234885156,1.2583913664617121,38.3218985860521,-6.379040174245118,-3.114432998008148,0.9668169912473932,28.7539940611844,1.4487833656869882,-26.327914551227735,-19.616813097546675,14.650445742192375,-32.41819712469882
54.861523131587326,-35.42057723861686,6.230580956941527,-4.144257723638805,9.249331416050653,4.584800207031109,-31.930570282933093,-0.7537524969634162,41.28851502261403,-4.100554030672198,-9.133396478666018,-6.5272953869076105,28.56151362126934,1.3909476923715576,-26.714842964071433,-22.087809506571794,14.675510360237809,-33.29999424351479
34.61880637114746,-35.20513583588258,18.728874727553965,-5.7439696451177085,11.872171624900023,-0.3273790507006691,-29.95256673054197,-0.5136204934454027,31.183337513737563,5.216687216054583,-15.151993363773629,-8.849455748219059,28.482117296871017,-0.22518831047477916,-28.571384563990605,-18.606939072382254,13.831459711673855,-32.82011597258496
36.65298312217331,-3.542052254055683,-20.622439769807187,-7.246770054745159,6.099467480644692,6.285051046270182,-30.1231232446664,-1.2438149258309346,29.296031948534896,4.873381295026075,-15.603664077710597,-13.324028122183531,27.539494656741482,-0.37210249978548204,-27.405188761836527,-18.744623038891334,11.337216383460598,-30.685493488849175
43.776536372921065,-24.70987116102512,-11.919368253784178,-10.508136107471625,6.580036058115372,2.5468097283944395,-28.145078933066728,-1.577026374062128,22.34541593969373,4.147181690605712,-11.1719434691187,-18.681493310435968,26.02687837222732,0.36439026388411433,-27.12246661755905,-19.8640615393615,10.610981398220636,-30.509362582567512
72.98215151072874,-44.1178301134904,-11.705619946188701,-19.14138299688068,9.603037309754344,2.8136374253968097,-27.631546166522682,-2.4897333271607907,30.253930392404254,5.77267009759416,-14.649925274437658,-23.359356761284232,26.483621503053964,0.7148702701784717,-27.039511472407384,-17.86358505954798,10.188064307830949,-25.846206900710357
-2.0013975678922833,18.899450496095255,2.9684925885208777,-23.185398776923353,7.453661812695945,3.081619022294322,-29.3635593101634,-3.1029194396479656,44.6232631359348,1.6444157773544514,-22.52185979569264,-27.064672377685767,24.515369814654417,-0.8830561308203617,-27.058559252969086,-18.5049523458771,10.752240412549922,-27.926556236401314
61.603256263258686,-57.926959179634004,23.313887408201,-27.718362248910328,10.28846450825625,4.034410526532088,-27.09079205040158,-5.564960621271968,37.62120320172553,4.653398766285731,-17.306939725198152,-25.695839999784784,29.30218710354169,0.1606542702791678,-27.667788553819292,-20.127930457078108,8.104393402558966,-26.0079441289788
20.335585185360472,-12.385939799433327,6.263611931413994,-19.9470845648636,2.2870393297319556,1.668096009715451,-29.992837785988492,-3.820985004389419,29.951427892570436,3.2761606353768062,-20.099164405157126,-18.86225137019715,23.949512602889772,-3.8688313943544834,-30.42960942681919,-19.5097592328381,1.658738683824808,-26.43800402210161
-22.28699473117493,28.76284926391803,15.783592901020388,-14.715516167055297,14.11406233735711,-8.509529570716454,-29.0849471855702,-4.9022603783420395,21.809480444757753,4.739525556534529,-8.827811400233227,-10.177263334233148,21.34838824964195,-4.572819739761492,-28.019573981578503,-17.138669325765058,4.892201508718138,-27.654087896696982
47.11635748998759,-4.891735147932502,-0.7635885490299898,-1.8672248928362087,18.32785198328612,-3.9394776562327856,-27.39427006216267,-3.4375240982248405,8.80098161858185,18.028153444237795,11.819621490386382,0.9450523471026688,25.502993502848636,-1.9511839537536755,-26.589998978028568,-13.405230404591961,11.164207864748452,-22.038763447934127
34.89054096123354,-7.586272935496101,13.263656034732943,2.581948148823031,19.616120955631164,-4.836850290533164,-26.092456451277997,-3.6259747020911712,21.590672148962064,10.622161001003622,6.393448811696196,4.5435902477532455,23.913341531591254,-2.058578084845002,-24.773551803552984,-12.020372131655517,9.439580575547744,-20.627222460427305
23.556537024963127,6.030662349700442,12.063941793674896,10.643934307935638,20.615767088326002,-3.584294003909826,-25.569891936501968,-2.1471674735283823,30.490800588969236,3.713418281499221,8.683323278161486,9.407533327767617,24.392247171337132,-2.6487492937644666,-22.765420418968166,-9.663663784409295,9.386578456611144,-18.438783184509166
3.5440711796545585,-5.25240832818074,42.61073308608612,10.502177332305,19.959718520366213,-4.283384575233523,-24.556778178309663,-2.126071369210504,36.96642578344369,0.23179414111039698,4.4312897904559545,9.775063554979933,24.010165489024352,-3.42860062057881,-22.323313477373958,-9.264766993649015,9.052184271163117,-18.598352281139437
19.97119650402242,7.393472129769439,9.004216526308937,14.75455694918125,24.191177958892382,-9.277858899544535,-24.322415935884038,-1.609455770905948,25.587808689070393,10.919772785912652,4.77040594473177,9.84545468969369,23.548537258136918,-1.8589082118244207,-24.13070146469581,-8.577480229247936,11.26860501734819,-19.933891959478412
-35.36669283853785,18.479720196745905,49.430177918993294,2.990637618296809,12.020889758908968,-2.258825951803744,-22.81574086021271,-1.4761675256844184,52.99661361531507,-5.141110037594267,-11.783955683593787,-0.5377049985012032,23.007532852121766,-2.3341489472265553,-23.499876263051263,-11.70335222082388,9.297584073776513,-20.49209876138654
8.333953997635348,11.40460621234036,16.034878283142803,-0.6680858410731396,22.70739472393903,-5.980491217861504,-22.77091613245009,-2.9956875318693905,26.51581131112323,14.647881973445184,-2.262313914632747,-3.796026717761735,23.852180212614766,-1.143208512547937,-23.555746204061627,-8.192925654433878,9.77997008024591,-18.51498110653305
44.91932993348313,-4.6519566781311745,-14.52028069244097,-0.12788921456050595,15.820515245916337,-2.669098491384834,-21.84390092197444,-2.749928341663252,13.529399713953218,12.66880295636015,6.284212792073857,-6.863212113907503,21.004430108247874,-2.289935356831071,-20.977806148247893,-9.179101112460291,10.079121175787815,-15.467249384666854
9.05655638072735,29.197733707842872,-11.668354559191378,-8.377217345898675,19.68112029963419,-4.824791485731632,-21.792278176607432,-4.156847587836463,23.900958917050566,9.039264081921722,-3.332062301991864,-11.399442513370547,23.253623778950644,-1.867902325374728,-23.18789989423282,-9.290618510067866,8.046678964979403,-18.184786390831864
8.169290174828603,5.627905042640842,12.481164813840792,-9.204850042387012,14.26949500363745,-0.4356216282214831,-19.97903145264284,-3.3100757544554655,19.446451965992892,14.013440589138641,-2.9856346174543384,-13.400747948624009,22.884935713051153,-2.611409996029219,-22.568576931858452,-7.160182617027228,9.053925762486863,-16.511024989738708
7.296196155744838,4.425014212881932,23.455159207238736,-13.841391395920715,14.625050690112474,-4.2478616460425105,-16.403902431746296,-1.2837915259032089,26.631256987178055,11.96620234417465,-2.8328338895940623,-14.42964726168384,21.265701528885113,-1.3952959974516927,-22.244735993551863,-4.936174451640245,7.827444883827372,-14.645082860322038
-6.941707126556317,31.643923313064047,8.460524872318697,-19.35707252573482,12.251680816614364,-2.980013362076157,-13.41041793200009,-1.5936206354862712,32.75998943317253,6.706305209003904,-6.486921518525994,-19.17370459042896,21.423429694386435,-2.711703204745411,-19.774782610746488,-4.669314992019341,7.6876954112625775,-13.172738473851297
46.12099578566445,0.6622979658544592,-8.088246766957273,-23.115097163100355,15.05977668133849,-3.3704158575806082,-13.732735340757507,-3.848882849244033,16.348059283862845,12.882509855942779,7.34156450248514,-20.99218382069988,20.52615551140584,-2.0682639727907475,-16.721087811944,-7.629061093088705,9.416029778369545,-12.191478945537412
12.673479447421855,15.974000075701515,8.672710110057409,-20.427855935262443,8.69376232976666,-1.2197418631856909,-9.26500273797237,-3.166645618473722,13.626592104397098,16.041566000035665,2.616992315120598,-15.392816721505774,21.113081211453068,-2.2969427968332,-18.064041850976615,-5.709724453679474,7.0554109062800485,-11.79878890562804
11.174691110915823,20.644645840687193,7.4731307472349755,-18.619640996622756,10.243851635603288,0.34700481948513984,-9.089130558514828,-0.6211023684673256,24.009736619434456,7.003736879513339,-1.8126204596700832,-8.52802633693371,23.379614469171816,-3.7882623564834548,-18.33465528070789,-0.3760733040423254,1.4848380469634357,-9.846022649566482
0.12019289418061163,8.619532730580444,24.64173954365617,-11.440318167900466,17.171050215437965,-5.408516573109896,-7.4430530718068795,0.7603947527475792,28.55197763274853,-0.16817660459430073,-5.361254160717366,-1.0813998667919371,23.22421358866034,-3.124095212180726,-16.653851111882748,1.6336080585068764,2.567817031892922,-11.313547367384427
19.061464470770115,-4.573682635637894,10.470788113035166,-1.3312917475508588,11.506438264584231,-0.6148968829294073,-4.717142759159547,4.29824269132448,23.44474093264185,0.6783449636020364,-4.122526590793422,3.626718895293507,24.455605014688135,-4.210646240023338,-13.607417310050337,3.8350998490435018,3.7613478028448313,-12.09955845924318
16.435307234720717,17.10078029064426,-16.4847152683351,8.289456896000587,10.535537701662031,-1.873909831399541,-2.0830348555271314,7.0627389146613435,16.500714689519995,3.976887607397728,-3.56519930974539,8.428426165984723,24.046464570539417,-4.508711331885044,-9.781140878602123,3.884719569185986,4.479546871505153,-10.055404352150479
41.94959240633102,-38.95638000893229,12.91694340429538,6.777273890158774,7.129432959030137,-0.9822637726318972,-1.005338899703517,8.272646968653644,7.9152746961931655,12.65725612507958,-3.0055970281741686,5.120495898879874,21.801533735677452,-5.287740170475843,-8.592882511352048,5.493566201343704,7.652203784545556,-10.161446910768081
-49.22203381309575,71.30160028358,1.1157120877738045,7.0230209360452776,6.659396773162616,-1.1626233028797297,2.031878981243409,10.076458304991624,15.169208155604835,7.187970425474145,1.853291072375601,6.007829840973125,21.138881575937596,-5.766371882384389,-2.6204931645570397,4.853094227370075,9.861349339009593,-3.6283052335293284
-6.294426543535607,10.857929434644378,18.229874959774396,7.171241108928751,5.512187374206263,-1.9266595573055083,4.685086664064372,14.134371283881928,14.922358354295952,9.346769799342033,4.761438942030878,0.934051864266058,21.960889727550786,-4.967932163097089,1.5931197540949142,3.8189084461502887,10.032794425266815,-0.319225566741423
42.214889812120184,4.423135191700054,-30.077921759504292,10.835311003196036,3.1019505449524445,-0.637574070788471,5.587327586476089,16.83306181670728,12.545935700445895,9.36793873818563,10.601801895903876,-5.120262086902004,21.826145297880878,-4.747823284786483,6.294245642613191,1.5121982214951437,9.924418699886253,3.574630491698038
11.246078669140587,-19.585840145486674,16.936981863949963,7.8588658628342145,2.553823825132085,-3.643081172634699,5.422455636517743,18.758484071362403,20.540157215312597,8.032792898413382,1.1124497481913531,-13.229313611359668,20.637012415942465,-5.984872295523818,8.94394462955772,-0.5044023897398411,9.243283552792622,5.123718112658011
-0.8594670797421244,30.434027563428135,-22.564110136839638,5.66393410559342,-3.065804823739306,-1.8609729710748035,6.729819420919391,21.57082270267894,23.670433368948842,0.7514674249506115,4.614193195084848,-16.361709536426986,18.002873277220452,-5.358625660467865,11.788505912107773,-1.0588892002134642,9.454283948874316,7.843903963766696
-41.56336702998872,14.441600854758986,48.1015035899959,-0.5346734779826408,0.9894685519174438,-8.767980286915407,11.072187550834983,24.781787346304487,36.9760657915955,8.520420543267477,-2.3307605801518445,-22.720661817812335,19.19725032532599,-5.1151233426710245,16.097640893516235,-2.1043047141632982,13.97546388658952,9.87987946242837
14.429295111920453,-13.558330135982661,26.09870606332819,0.884354079055834,-3.932901515100415,0.8316303932905216,11.418444662142146,25.949928021614706,12.507105514403712,22.062206169496964,13.285968092534294,-20.0012546580003,18.36067498572902,-4.668333219227316,20.016012707661076,0.5587470876544351,17.435664963231012,13.282645899999373
48.855025360448785,8.251641820763188,-36.61857906455303,6.796008759747242,-4.3560662541760955,-1.773480755397971,15.386133321343102,27.711992349070275,3.3893564811857786,19.30620936647619,19.823333524493293,-15.234802495638874,17.739262514959698,-3.6275410948240516,20.125759871575738,2.731097369002203,13.78011878946618,14.829686681421961
-11.920089356121302,34.070092145867285,14.541853394810554,7.3368981992442155,-6.041753944821373,-2.325248700342357,21.217649706463703,32.21643429491027,15.28695288065196,26.913022604847875,12.496167106437792,-10.667388208029534,17.33299159183219,-3.16455913402034,23.84902909682149,7.049619801455332,19.317673648031636,16.376687594860037
21.462325799109948,1.2984627235461255,13.757159925913117,12.56580868807896,-6.450787173069724,-1.116612515475199,23.151419072555058,34.18971455964851,11.675877201178615,23.104994302126652,18.160406505422497,-3.8575208719753356,15.77462402863344,-1.3261544058833117,25.814801993695056,9.510462327096121,17.73948678477253,18.607441260485295
-14.476775696658791,37.282497720384455,17.3758525630076,9.787272678023141,-4.118225861302697,0.5829104752322756,25.77758331350646,34.70604188228318,20.779185772931385,22.53080498515145,10.057888456852272,-3.3990319500775836,17.654035335356383,0.4228824546089949,27.195127441148806,11.676264578491981,18.5183530044677,17.61582604649221
25.18669680432525,4.031859006410168,9.382054674451297,14.235935862458579,-4.317516173942742,3.7499300992886413,28.21744682527325,36.89043242564588,9.100235380777107,26.948308506796383,18.755541498786766,-1.9675390386171046,17.990634095208108,5.01235638501917,28.185475423628517,13.351827272300493,18.626870532970024,20.6287020558997
-15.994958254984624,41.001845799387624,13.115955726849766,12.044436885795896,-2.653990152926223,1.646093818338458,30.764202606070455,35.66464702058069,12.67468610662705,27.958948761924177,13.88186260362413,-4.348217315032231,17.370311747444525,4.239087140511017,28.78599878525084,15.025555618752627,21.28772712438684,20.71255625888952
17.449373488324305,1.6082340205208263,9.631940577111774,12.490298270781723,-3.522178583786797,-0.5527075269550221,32.44148852927362,34.64198017634642,13.14282919206169,15.89461403743743,17.50755342240908,-5.365150295078566,15.890662763835834,2.302424594688148,29.09450628915946,15.720988947094757,16.051521077336535,21.090279619781406
-31.31865259691503,40.54092545106134,13.87162683167709,10.007065460166263,-4.578230294299303,1.4504963022056632,31.58933356677437,34.50598897823445,16.852356652593535,14.77910798477545,8.929223595848915,-7.459723087140715,14.625850819607052,1.2532453868733238,28.134569580896454,18.953922765442684,10.828500009185003,22.54331845584148
29.20777195729074,9.164878498876499,-17.915672751703184,13.0909978561739,-2.5993765443257644,2.9681624888571796,33.48146130890966,33.205808549744646,-2.0761011186872835,18.362329836761788,23.20605050416161,-5.944303661514164,16.31021304696189,2.849449913419854,28.15246360577077,19.74392923694189,13.919536683131746,20.18896885392726
16.799278185139148,-6.385743665540229,11.732443855655477,9.144282331492162,-3.640335982550635,3.31671457664541,33.72347393683712,32.79219385183221,-1.2591606410083003,23.323906066976164,14.92723172642275,-5.701716445563596,16.54906349868333,2.012893667689583,27.390493696088157,20.23959552021598,10.187640430465713,20.76579652092526
10.85157708458717,16.936319442419006,-9.295134568987216,6.663176932735435,-5.357263664430466,6.402488888919982,34.366379148499675,32.38616238991213,8.65840151085964,11.206508480173657,14.366711479049542,-9.075682579251545,15.244648823936032,4.603095875116889,27.02069498471181,20.929327079053675,14.476741025699745,19.000463520640544
19.470223539978136,5.204189771216338,-14.005226690639283,5.061769143345099,-3.843792845799708,3.8269454635591917,35.215051096550596,28.960256139285097,9.023867021028124,9.549599559207987,7.364160204995566,-10.206671021258037,16.59614835128903,3.4910930895109202,25.57834108695471,18.492877325761615,12.333440444228653,14.795490393275177
-0.6072046306236061,17.305513259722336,-8.257328118910674,3.168199243472038,-4.666359603304503,5.16056747569354,33.632914725735816,26.909000090173954,12.923276180289363,4.192781844013425,10.228461223612301,-15.735339494185158,18.064349539551557,5.415317662206462,24.235461943867513,13.320993542598252,17.722737309077452,10.690154771160774
10.385780546222382,12.12640732782549,-18.321404898834253,0.9824996018367775,-5.383467335222846,7.57130403520026,32.4522225492771,24.181503166245136,11.176697701919736,7.538558315330164,4.795313504528672,-18.33728694466179,16.621743436738207,8.42265970175232,21.23435251591691,12.542806761020913,16.777168598494182,9.809678699045582
15.241525459641082,-21.466087014919463,2.8735370750065883,-1.2999827552030463,-5.897407202849337,5.199713221817736,31.087200128840347,19.89876198004561,10.327089750240354,2.692105064088995,2.2953936869355127,-19.965595736676725,15.295593363079867,6.9466694938955795,18.723614479830267,9.322390790980856,13.012343360950371,9.12684443097825
5.85437750049406,-4.759810478402482,-7.564126131924585,-5.3393987154629965,-5.231552693631592,3.1240189079828333,27.877831677790496,20.017809791477106,9.983704345285105,0.4933915628429624,-1.7635198943850634,-20.522533838979456,15.550631277572734,5.479641055028213,15.824456571002049,8.933378779951415,9.846207264330758,6.10272062887438
-32.326732280471546,29.041623367715502,-0.7079085905461469,0.6808680921566348,-4.557749554322616,7.691994469303825,25.26572013550488,19.265034617759795,8.779209630558057,1.9189507437654818,1.2124861032218357,-15.222795888634813,15.042929855772464,7.732602912215737,16.24799821123898,8.641468688957547,13.235801616998394,4.741442122445334
25.40705918459893,-24.457894281750015,8.9887997296288,-0.7198889120788523,-2.1181132937645195,3.278420616923393,28.03624769846725,17.835652837560332,4.662663215019045,14.488379374239285,-1.0814335661513628,-8.851533302655337,17.092703387738744,6.088282105131864,15.892736412189754,7.958485954068118,13.317608261981384,6.117408988875765
8.447603433080818,36.795513635798564,-30.23265037626573,2.1772870551332963,-5.432246691331468,5.703869240017876,27.302706297329753,18.756950252018438,1.1496076655735123,11.345744971711003,5.319805722168625,-0.6274046116567131,15.84033138482905,8.261667182368454,14.856447717257153,7.372832813525089,14.095502622220728,8.961232868324743
28.710588943832906,-14.447704168277987,1.1607656337244627,3.708274064365718,-8.933617297186597,6.37447603404069,27.948122441761424,17.2435884585776,-5.0804623653526235,13.389745294763589,7.330092319830205,3.4925492244500838,13.434120955479031,6.4401622574426085,16.94789940929103,5.810387014928683,13.420917017890542,9.659736839981317
-4.332796320766846,22.88974655404001,1.8979194353455675,2.115258794263185,-6.762721383517675,7.2434114592503,27.335869741961126,18.178340388867774,-0.16029593948175602,18.56950451890485,5.926026876528757,-1.7651069930270857,14.659131212354353,9.510641196041579,17.089000944537243,4.736126853579607,18.71573687743586,8.506050668510518
26.897274703245017,-27.854981528775227,20.319338227832667,5.113227690351938,-6.146194337814482,3.623118466302345,28.688779185470818,18.338381660438728,-4.207541539019559,23.27161836600311,7.064752480554738,-1.6539702148442839,12.093196889383563,11.906628454769013,16.842384550070555,3.6618750801285715,20.604710951856163,11.652765486142355
-57.19187921977702,72.97020773251819,-1.4860743876681681,8.600579586254005,-5.61913460759725,4.69343791672337,29.760841164918837,19.188454595899803,10.512439295911605,8.159781826435587,4.20321914861572,0.017393440400596205,14.622988583623922,12.749216093192201,18.161309773846277,2.4900846192396315,19.283041207373884,11.385070165911927
27.87663683629101,-14.483622235210017,-2.4822896050640963,6.913188390593263,-8.20889861635271,6.059783596458259,27.817750115083278,19.849510997843925,-2.8762340408906937,14.054853292907733,8.279110024512143,-1.6338158898855735,13.459119311297798,11.647780894784058,19.288038321503276,1.1232075654078095,15.922501752205847,14.148522624953461
29.16916891432268,-6.716055441856652,-16.165973312800833,5.812882498932625,-3.368418836471914,2.2533329473514625,26.277630738528636,18.36826283962977,-8.728657212271436,11.464113784468871,11.968108465734225,-2.6035423793033754,12.117070857754051,12.410978441508176,18.367170367950326,0.6355880217884833,14.136305001681109,13.888486652425442
10.456109506890147,3.6933640832636634,-8.942926119505639,2.5652657803040317,-7.6018236870247335,4.700051247453686,28.460942539134685,20.604036691141516,0.0840086505746882,3.9031560660961198,7.750579948067733,-3.9659314137587707,12.842768028446663,12.402049390584084,19.402766636228726,1.515622735411589,10.994589652454419,17.34348649395227
13.730170314753845,8.053088345865714,-19.778651708905542,0.1977476137169476,-8.60421017569984,4.317777133576982,27.33641701606311,24.115246673225155,2.8581412550677783,2.1142413073034945,7.931408774719616,-10.701436771635167,11.241403074467108,14.746036946411468,21.32068143641689,-0.14289081016140193,15.286418159022706,15.138515661940346
15.455714747636037,-28.012419048216216,12.655843247582652,-0.8990227864747489,-10.184204365432606,4.524538764883543,29.642519392651412,24.702463128702583,4.476441128725412,9.612953598885067,2.8424852794697104,-17.731763846530406,13.562855833085266,16.31788478079862,19.72640192675853,-0.9218256198661288,17.44119284469185,13.719117855594858
-3.8989310103395383,17.66666020672557,-5.781572293449489,-2.3852099517986494,-6.3846602419129415,5.222684437677155,31.082382541817722,24.514005140255165,4.645743600740218,14.094318879513299,5.374635314381948,-18.51375084347814,16.19356843728656,17.898841967628467,21.358393597136804,-1.0163921242407863,22.73228762560943,12.011186965667468
-15.524863888206852,33.369854041363,-16.593983571621205,-0.35448845070271595,-3.455651250872256,-3.1582395645721384,31.16778341406447,22.08485112761082,10.494867405581306,4.8158827406988145,2.734696607079627,-17.148928622510596,10.832405684613363,17.340421136563453,20.25961162252822,-1.7936947174976168,19.635940285975487,14.4094464141136
-2.0391408021891806,18.511195922357402,-12.359475915796079,6.267391437546829,-2.178419340704105,0.2805267448976796,28.9222024046965,20.735204596025063,-1.2189306241812048,9.219363040841923,12.012772886798441,-9.633234661525702,10.565271798617012,16.302782509547317,20.922385227729134,-0.030925130999309935,17.527140255718002,16.226445777674762
33.530709342594676,-2.2019287272195527,-22.27778916827244,11.035032174196393,-1.5763690968822814,1.5739289031212964,27.959025780955763,22.418056609211586,-1.1008763121709038,12.753645315203201,13.774970578143337,-5.341715959864485,12.950484803639448,13.125718841260907,22.174890520778522,2.123548030708908,15.23383637407358,19.220141377258926
9.737988100437402,12.734994086092794,-0.15688971258157736,11.116371315249133,3.0380870507397564,-1.8171331767001453,27.985322236429624,20.297197645413426,6.161248747159835,17.8600578857956,11.243989314897032,-1.8328321586450542,12.61662515273158,12.887402627652438,22.064037460793298,1.9354085146890747,16.955148624698456,20.656229292920013
-1.443697333572132,33.53632533046621,-1.5641110553708977,9.636467254403259,5.512525536671339,0.06842993642750628,29.29409889034585,21.501471161154935,16.270289586906653,9.401531920502187,10.572258423690158,3.920904264834702,14.055699838475178,13.829960204273842,24.105565192391936,4.385300289444612,11.948558283162424,25.12473183482559
2.81757619406973,10.689559754578152,22.817624334958595,6.497671631445405,8.679032897391,3.128991873615529,26.02591717716049,20.07357968885733,18.97196488885519,17.35887067315334,6.486249117750581,0.0053472352976911,13.556460622610825,14.781459977614878,24.393220317686097,5.176380719100571,12.42111119077709,25.692053614766344
6.1151531026039585,12.359766278706116,19.276476299140697,2.7742276220408195,8.33833637855169,3.2629250462110884,26.96999146147473,19.431365189470803,20.02785864655833,16.731565915103996,5.626674386677469,-1.860475645845547,12.388199112919995,14.569965968059172,25.466155971283722,5.5782970234354305,13.978033101591027,27.045865882058965
8.937163026133604,34.738256664661385,-14.043137125298415,5.1068682294039505,11.424143591933229,-3.338426133502197,25.876236007245886,20.062933920209,6.253949330264689,16.79697249919488,12.681089895423634,-0.9928609299822355,10.550651555368404,9.5820942932208,27.519735188247445,6.3724063490412055,13.884727194616264,26.061216164092485
20.267955260428515,15.421695938511949,-4.4839439623156725,3.7298247399411864,9.635552670702983,2.5635082006268286,24.307176147647308,15.132058257956025,-3.599707362702425,20.8753195029404,15.44225974361417,2.217660092712137,7.555260919071316,10.071855760948933,26.257060606884487,7.754117990022208,12.922271245632711,27.132793401852908
-1.3971761807631005,22.96577602810261,1.468883038451553,5.186169657767378,14.59383871412706,-3.9340018460948976,22.458120695159565,14.111349946778528,0.33008625499041955,10.89978737059883,15.082055911145689,1.9117230068197557,7.0150908492704005,8.910179017513796,24.1196145761508,7.184423067030842,8.453718189395357,22.8386953418739
0.19245706723853218,14.108073810504607,6.842643652963012,4.885991714657993,7.7440330932837425,2.9506797465158012,21.40328995346638,13.289622713861597,3.6874048015970757,10.894039091162444,9.15901147903434,2.2887108735645914,7.660313743246121,8.831420041450844,22.767613162080444,6.128278560347405,6.240682791319461,22.74946182235967
-19.00695917754276,36.89615063819904,5.484808390478173,4.684789084991856,8.12939510675586,3.2953653973044923,20.947345428396837,12.373708234552087,3.1516441597831104,14.607834846719221,12.028788326292995,-1.7294783966765266,8.416413408125806,12.08164168615476,20.54090490687964,3.706854165848,9.700990349607629,23.544806241403975
27.23618292897631,4.609883959598559,0.9109623716213235,1.6528292607428998,9.792800553300133,0.5180662028167493,18.062865984689157,13.60953661574515,2.4335542745932415,23.701208501155328,7.968461873973653,0.3066338712076728,7.03697687124545,12.605994468194183,21.15050970929437,1.1897883078176807,10.826506981865467,23.3693033134174
2.200867279547573,-3.7456662271719416,29.645005253643067,4.969938087447199,7.949016092895429,3.7009409732637737,17.535041524815977,11.52807382890315,8.271271951874905,19.03309209682854,8.989903260642665,-3.2241229158909936,7.525682804681747,15.091975896042731,18.541669116070615,-0.4462553969147427,9.031083593352221,21.344100329577238
-4.658599180775724,20.61864250076997,0.2791955150474319,6.823493195667913,8.164526825607144,-2.7812609491658904,19.168509038906368,10.621372825625162,2.109576362826761,13.005864669993276,10.99145403558262,-3.044163037705303,3.9251168378466375,13.680043123959162,19.64809979197682,-2.080112012806312,8.611454756791332,21.57088446970924
-4.963673554030752,30.045776404064544,-15.60344163532184,11.998719256819644,-0.010053538223260716,7.146063606020776,17.396721656476917,13.916618094578006,-5.114118592431527,12.553068843085278,14.75434030633454,-0.7159100854702576,4.04760258844756,15.20615511198404,18.415034664999716,0.7805574534261526,6.247048100072018,24.440343901085438
-4.574009170718007,12.914405548534496,-4.135606934781158,14.147857124358024,4.616994519136904,0.1816105961706942,20.22755024969094,10.28061959927114,-5.48979160467621,5.272011833709225,17.153476146113263,1.41695019223239,2.1310346021905033,14.006075680079244,19.334738326240867,-0.16507364423436588,4.867383533420469,24.288381991153564
16.5300389855195,-16.322185629860762,2.5532017878680975,13.466214795566383,1.635191229315506,4.4507933199233705,21.899116214830922,7.232813623125288,-8.685817089620137,8.740924336647698,11.450436836699144,4.721725855350831,2.862682606609546,14.18133827287464,16.840723891244078,1.33316961647495,3.6909838844287464,22.28693898688211
-26.516299661747183,27.00520028031518,4.853512721417289,10.539729781775591,4.618948416857312,2.3752014880899184,21.239446642906373,7.116774336481708,4.731434744598552,-0.47821644275809305,5.555456299797443,6.073468520106449,0.7734085222654983,13.290403372712792,14.83930106249744,6.447257926869246,2.6199733349200436,19.60795019111773
4.9607689111983575,-8.863630304931505,9.894236712311336,11.22785611695776,4.095449270380218,2.8416711900938805,24.596206552690546,5.635347857618264,0.3861766647567677,-2.8540301530983747,9.527236387570891,10.159848536289427,1.6247117342802575,14.360560556078827,13.135150288806066,8.048252291628962,1.7517888519801161,18.302265614946375
-3.2008529636624097,-9.864504364382967,18.651845603200243,14.944635545450177,5.240536049137224,0.6743227408040502,28.258305699241646,5.425078296990883,-5.705986714807491,3.664125674344781,10.084276737224778,12.48870812382518,0.14276452227683833,15.145577100749133,15.24394201874254,9.065959144418034,6.359725067615699,18.76054872998092
-8.324934659030703,-3.6346318038494374,27.90352707390553,14.854013009293617,11.765182973920131,0.6583647597313931,33.39753285366501,6.095118429546616,-3.193601627772459,12.33769461568477,8.691393458079157,12.962487174309341,4.042216316494535,17.98912976532074,17.845300811375232,12.03955212368697,10.291118588470255,22.83832415316644
22.98726687510944,-10.193920716774326,-5.906179169297152,14.569310221789348,6.676921434616164,5.1375611789080375,35.423862172035896,5.008491783664315,-0.5731599307396742,-2.1268525413149284,11.40331419200653,12.753175490856925,1.8967973743747883,16.73866763931248,18.107135895685662,15.504235659867422,4.658887002402587,22.332364315058314
-19.422385476314943,35.39995287191604,-6.897318482671295,13.504564659447855,8.140067365985809,5.518007856729501,35.60672432224252,4.313450100241891,1.6667795783177795,-5.158852346903306,12.165204586623975,13.91168175432064,1.6164685779106627,14.616778620690495,19.447447891192823,17.897554555423326,2.255964048642795,22.12557388179622
-0.10281443694183423,-6.894285400936933,13.601700627676857,15.566068450248054,6.5841366162899755,2.287969312877787,38.828878518096644,3.4238275122851647,-0.08739107289029846,-3.8874983141747492,10.879350260105163,15.266208366987449,-0.021793306586818773,14.748388658066878,18.155218465070845,18.242998143017942,-3.070320143181931,22.803912024092803
-2.844571296664565,0.3277281153008751,1.0977473563139952,13.42947223034088,5.231807124719532,3.0647239327479183,40.597933145724795,2.827692581690034,0.7071237705647775,-6.223247681122942,6.862088253341126,10.66441206248968,-3.3112808649873244,15.961478963927783,18.039071413058224,21.032887272904546,-3.507580488439565,21.047023396311108
-8.116320130141993,-10.806214353837461,13.79472190861669,10.61043443762517,4.864311481155349,1.5004921055008094,40.03482527488398,1.7435627082109235,7.370413134493681,-13.631148521169802,6.363453064441892,5.3799041844782085,-3.564743308709321,14.642583119880856,18.317712946357766,18.747638812244343,-1.985785064421414,19.39401217372722
5.7617435213398025,-7.580849824650226,-4.363032532537185,10.624612181573324,3.0401750279043434,5.603180873128591,37.23706175640709,-0.7077028158150789,-3.437998074817834,-9.70488402888656,11.82482527942518,5.760530169986707,-5.177100871126047,13.233010514669786,17.428583625199185,19.68822157290619,-4.950582202065068,19.895688971653705
-7.109733708123819,-7.379337521529457,10.980819797559874,9.663330760899195,4.446936338469714,5.8023029145210625,34.450612193611505,-0.6200156249206614,-6.034400319713566,2.137339902812471,8.98810992176428,1.0640298239246715,-5.804890721977735,14.076408764633433,17.61777221749229,18.190545561559368,-1.6598594390588097,20.501234493059577
-8.937423433464257,1.3218529620908939,7.872245200802915,4.8944916059717904,4.885277859865893,7.2736885416471155,31.089364293414363,-3.462430426749595,-3.0558294776265242,2.7544198831150446,4.103335495024796,1.3492404348704614,-5.9367253186993665,13.852272578182916,17.2250543039122,14.64529870480926,0.6594701669716443,17.69495854952432
12.973962066592318,6.120104313911895,-19.25536435931454,2.2751915227430892,4.745794077792521,7.771178699264295,28.032064538698894,-6.50075160318389,-2.4128400250170667,-5.9006768310836435,5.861972108785185,4.565438291231127,-7.330768382967335,12.560455904048935,16.05506806546372,12.763530126055135,-0.7272515933945023,17.531624738469645
-11.7870276936365,10.92164050439208,-1.2604465635337734,2.098377186786612,7.837098661934249,2.1188810237977336,23.325377735930754,-7.879702869749746,0.8748347711080697,-9.374793354807789,0.005919095847609412,8.466582921843763,-8.327163194032153,11.372701706700354,12.44758216303147,9.908533876243247,-6.796844669480052,15.51895602030471
16.097307911623957,-11.031846155605002,-2.4995706589431155,-1.3001280412903942,5.760586071773519,5.746685230672277,19.312902165791456,-8.283108685270232,3.779526605477905,-12.355690867882558,0.4025031594807018,9.439424158693043,-7.754342015664818,10.972460445360683,11.871376956933375,7.447569396368893,-6.4165701603566525,14.09837025303219
2.4846851421469704,-7.688868254103017,14.625374068972748,-0.6936802324996467,3.0084708015128516,5.177788879065757,18.924175584396792,-8.394792836786237,-2.8788706611515362,-5.273101376340168,4.414891185441823,12.464591576551046,-11.472094508419108,11.457232397995078,13.349818718281089,5.380685820364286,-9.547761827201128,16.19956939656254
-2.0384099079637163,-2.194399411607227,8.707385871523307,-3.406639831641769,3.7799924918290593,3.3418888126161828,14.541692979175025,-10.070471151329627,-3.6707127166293514,-11.85804705059936,3.3514684928527636,13.245227994671152,-12.058757605468273,8.52991586259955,10.535094864174063,4.586850011018367,-12.284354989790138,14.69350363469735
-14.562306012049515,12.873458354200613,2.793570853619766,-4.556150822449647,-0.4211170361220802,8.051567840361106,9.48560953561946,-13.896307824357855,-7.483132465354208,-12.774487329428794,4.438830421932661,12.367361746156732,-14.495200995855068,8.831072428138436,8.505345358013184,0.37853572523787804,-12.673440296784278,12.607523644203312
-25.516769736216077,4.603955351896229,27.157707306608305,-6.1930577583468125,2.221682418737476,5.146416216948676,7.271389362039692,-13.524766325635191,-4.355318745626498,-2.9444122760909046,-3.0654534371003983,10.417019622745226,-15.559043784269036,9.430801616786287,7.944108906014989,-0.7011450664071539,-11.984814217375838,14.824472746610066
10.41116449316946,20.65397657255608,-24.256632239742792,-1.4813518241484491,1.0636492896835268,5.466404668979978,8.387100208107675,-17.354627546357683,-10.30341891293643,-2.485509370618127,6.522522071049634,11.593563214325648,-14.957636698664473,8.668750112861186,7.093477861301643,-3.242064655049859,-9.925749646740044,16.16844267805187
18.90372992612327,-23.450516267189876,2.752001744599952,-2.725942220970719,3.0384337326079347,1.6871632744153358,5.117553383036103,-15.522673471286272,-8.43292139699494,-13.644100007180732,8.788239962036318,8.768054624689071,-15.71869288563202,8.302582121395327,5.8557234130604705,-4.119135730015211,-12.55127273211139,15.27217275890553
6.894399050660489,-2.610051912334434,-17.892655819720837,-3.676768438562716,-1.2291581683470554,4.843976296469526,0.9781941906324789,-15.744077651906828,-11.439609252869776,-17.670091709831443,6.270718140379865,5.55390570235163,-15.401091135951507,5.695360234489392,3.742483148689832,-5.187817580343811,-15.564689186440134,13.99110352608271
-13.1168649186679,-7.548765546773648,10.1974616719347,-5.115128138373821,1.932904909315992,1.3623765454817427,0.7540125840320471,-17.335446175069553,-15.515106679525662,-9.778449004122278,4.341047645096339,5.369211106659432,-15.762991999721677,5.8274475477046686,2.7068356243743423,-6.057443308561123,-13.790384961866021,12.227516582080401
-3.5320599155280643,3.530760348895652,-4.092440537377117,-4.599614406374325,0.12203627103363601,4.035485755184175,-2.8795670834124323,-15.414100338024863,-8.354813577443208,-3.250818407123381,-4.32518797116424,7.237465445336244,-15.925795821399038,6.64784672021187,0.8932051039567703,-5.7514013979530265,-9.963022744989726,10.274320437945374
-15.035781224770243,0.15921499183811605,10.039375706973374,0.40883659430308494,3.982874529671661,1.7302784356816803,-2.500807369535025,-14.081871419759853,-9.881183055194866,-5.99767070084024,-1.075447484784764,12.525947309154308,-16.18279445337941,6.300872827529428,2.305477941332427,-3.293082139387998,-11.211863197548817,10.86586313881703
22.001711551881158,-8.288354958871466,-24.654485673549612,1.4139632785141716,1.8940922159700477,0.20851727662239483,-0.4537503677648971,-14.217883019728148,-11.891237894830045,-13.917574511713273,2.957198442464895,13.324448162043698,-17.706197887195653,5.762912429112749,1.9630261886134903,-2.588764625395399,-11.482371619909207,8.923869634675192
-6.874681420327798,9.438430476534547,-12.957851799076414,1.3454589014141192,2.6448282544424675,1.6186277437154413,-0.2543364247208899,-16.70125634190678,-9.79533597061503,-16.170714188837994,0.6436454144986588,16.2737609034909,-17.468931621428823,4.64314082757879,2.01423482877178,-1.8805808033560147,-13.216236152981617,10.893674415606018
14.156891296231095,-16.09517921167434,-4.578636227694014,-1.5545555343103672,-0.21038715162294963,2.835516522471039,1.612846181315824,-17.039934349924238,-13.359521540235178,-11.390074579658046,1.0659728812813327,15.612143561157517,-18.986987935742285,4.796858540356341,1.4824391712114924,-0.0942685735508082,-12.80036439113787,12.478256850205817
-19.592895972665712,21.362339634027283,-10.063998740790181,-1.8172869513204066,0.5550585970972257,0.05048533115902831,4.756894494533682,-19.23808073288262,-11.060449972396935,-9.829911228117055,-3.686187445257321,14.464706615016812,-18.940315354386918,4.2707114988131885,0.46520778830052123,0.3287537572150345,-13.164731756324638,12.017351676941654
23.61602019408884,-22.62490854426776,-8.905937724096223,0.3619081342674768,1.4254254977721406,2.052683606449527,8.396269676380754,-23.784177737942905,-14.714974871041601,-10.806812320454183,1.4263641888378302,16.54250506264616,-17.426881227217777,4.627021647520364,-0.15863059410030544,1.0486912164910525,-13.040029981716216,10.682764579148238
-1.8242784596358073,-7.332218314608747,-0.9092614323927697,-0.29052991615759005,2.107677822036221,0.6388132684292334,10.28456201435873,-23.842374178488967,-1.1784770957690291,-14.223311942147395,-8.108558046077643,13.154058961196458,-15.521228096651235,3.4241410434409545,-0.5844840480725608,1.8702500276510943,-11.938211760531726,7.497827535156887
-1.3813267729525984,-12.448403891224217,5.4296831336183615,-2.798065977633918,0.7462548861548672,4.598022316330125,12.66761322190009,-26.834845882772452,-13.029994730824768,-4.552020618194543,-2.3101217465602204,8.694023587385905,-15.274473572042869,5.642407543036258,-2.179655072433846,2.988765643085273,-8.49230906821776,5.001547845992622
4.631838526513155,-6.039482600976159,-11.373930293427955,-0.32470109239221134,4.07947606270312,2.9925945640696177,14.5685551204914,-30.515649242744143,-16.57786881129193,-1.4223346304527966,-5.495198728345509,10.389126709807293,-16.296289302979975,6.398724889510312,-3.284057655469095,4.306598573490033,-7.390132619534864,2.9985128682666016
4.984351158827873,-4.805026391853616,-17.725962326165362,3.906815917120695,0.19303131941237694,7.834382109164559,16.475381321671716,-32.83415285634345,-15.533352734977749,-6.396967569423814,-3.698827313089259,11.989325975422176,-16.43850504198592,7.060089928562901,-3.800130950377234,4.84718795773577,-10.096786465012638,4.320696785829213
-18.683669470803416,8.344970901598778,-7.1811250756651415,4.525265428973171,5.7863274843877495,2.1308876078034666,20.24328964496158,-33.302245783666905,-12.826435760879928,-9.41736111241165,-3.4641718312623677,12.713410488660678,-15.799075875432848,7.235658011012816,-3.337342101994121,6.759018919929317,-6.651417731045109,5.061686700590652
16.636631122948568,-14.441881666130353,-8.353259060567503,2.01889174274857,2.206668493668726,6.97613178011442,20.500801146924957,-31.82244456603101,-15.586387652014935,1.5281987725624218,-3.5217779221135217,13.440348940570278,-14.671269569335779,7.511159812043591,-1.2121861367692972,6.233452748766749,-5.648142756181651,7.272188956279951
-12.103723350982296,-4.8052641387700685,5.6133919415491755,3.8096382511644555,-2.4404218413679324,6.64716675459526,24.86491249490382,-29.762128275128404,-0.47326082503102285,-13.502490661206393,-7.875709653393152,14.36550384259847,-15.399163524188598,6.2261960034627,-1.624046080778232,10.106542734533882,-9.919269711987635,3.4324485630716595
4.37405562356032,-11.671802275822,2.296336269000565,4.135653002248818,0.5365258484246134,6.124485041972445,22.983592512200197,-28.683987805866096,-8.308240446561356,-11.247236519498934,3.1031416177528657,15.586577967303436,-13.979079018643663,3.4782046977673318,-1.2526598533375584,12.71414977097082,-9.992229930856409,4.675336205525284
10.01420362462112,-18.830408919959364,7.867726760612799,0.6531045544575313,-2.827615623096831,5.310376171856159,25.696536147616392,-26.92800489301252,-16.923266676583225,-7.2338043631015925,10.273761353240776,13.587935706186142,-15.977792751101937,2.9779586106065388,0.9761058274105991,13.275020116472458,-11.531402803855059,5.336588681135151
4.523527066700064,6.629476945450521,-15.759076301979265,-3.708320928492996,-3.157774351951729,5.474337576541741,25.386122157950126,-26.056862888439667,-7.5682978689371,-8.59139292811789,-4.13765691214073,11.982954490885788,-17.293961934601878,3.3580262894804207,0.08160368708615096,15.500154452158869,-8.286921683002966,5.318431502176502
12.316241937394926,-6.777707526656288,-10.770811329327909,-2.4056012273081153,-2.602492533837399,2.6123482975070615,26.348970475311532,-24.11756262586743,-10.029186423586872,-11.609190560389958,-0.18919545370446134,14.189694291797432,-16.56065720002698,2.0790818213158744,0.1653557244440158,16.557483267402525,-13.83343934927991,8.038766463909056
-12.409349515609414,-0.8480458868528127,4.765719708584404,-6.2787921642101026,-4.189232749661043,3.0721074447506593,23.018266345723944,-21.98917547014858,-13.661477430515012,-7.009893122934229,-4.63917323640681,10.54007593178346,-17.29383278819221,0.9963961231560354,-1.6048160635810866,17.814218299302397,-13.913150750022085,6.270799436720651
-2.660253661126971,-0.386700365437634,-12.411981549685935,-4.585589255165061,-4.695362896663962,0.7011230424140473,20.276570473071082,-22.308608121613858,-8.016028480258488,-12.1767581837163,-7.624256790426177,7.772518623002517,-19.103129849986683,1.6722655188771203,-2.885229796849025,14.289816625184464,-15.557636216368444,3.4324278299725037
10.898784620129762,-20.042427734421036,-6.44380662578332,-3.2831618126994435,-8.124924289579049,4.288537046690568,19.29544689939582,-19.99780177376118,-6.276867212340269,-13.242565057335408,-6.4101277362794,7.058948453200037,-17.496560882466646,0.3954670959624611,-3.9689628154391166,16.531314484706343,-13.786572006231467,0.8907344888644602
-11.088516694155501,-18.799072358102347,13.685614138558744,-0.9066911009185894,-7.5442919577256315,3.38491633672519,19.097987052586202,-19.158521113419624,-10.690351223456315,-12.062987758052572,-2.461750524471645,8.106423491383703,-15.794753945997828,2.243973389708751,-5.051434848421156,14.382305722891441,-13.28774854843853,1.7706396759348735
10.578058736641271,-7.496738042857457,-21.45849007998589,-1.9484807047368955,-8.129401281900426,5.216878527186633,11.968896169926833,-14.126752694653629,-18.13165917481487,-13.228115509990456,4.513749768018008,6.520374825871125,-17.70896433777532,3.4089015226011643,-5.253830505726473,14.48351404147322,-11.229308114713554,2.1657045754762585
-22.540700121486765,13.47385021203785,-2.2065939942271338,-6.408578305931492,-8.024830892753632,5.3897699673943205,10.017398830123387,-15.05903282035156,-8.58117737727871,-13.710732243730885,-1.8902253944278167,6.500112805854576,-16.110434403741245,2.4251534251235043,-5.259858155992678,11.268444219034166,-10.248224197583447,0.41561672416869655
-3.9004057097844407,-6.864741334236477,-3.7552736732848104,-6.2790970096535705,-9.18381179344894,4.1965083861595485,6.895405036756717,-14.826473604311632,-6.355902782345622,-15.75713824874958,-4.388354040826428,5.701877344989011,-16.56590884365646,2.417543964237497,-7.413407561813717,8.643400466397608,-13.762729925965012,-1.233628288743784
-17.58457707681771,12.152687971899832,-13.799769265793845,-3.6108972423568284,-5.74695625213046,0.9534340063696645,6.997174740626992,-13.233882498388697,-5.79190266292853,-15.265879053910853,-4.640915575028471,2.8561416788279868,-15.364643115126237,2.7022353972715187,-6.929353163508242,8.561530877847604,-12.202576650471256,-2.782164332130179
2.032584606126284,-15.11979194845589,-6.1679210365701325,-4.165833615993906,-7.675430886279031,4.254372303174705,3.388668791461768,-14.383003284754265,-5.522181330763797,-15.752802227424404,-2.550349813168838,0.4043713764940975,-13.87409117288392,2.4977316036031514,-7.616450139034839,4.577416631923745,-10.743832090319284,0.06681397446060444
5.829035847616781,-22.17735127686833,-7.520405855039718,-1.3032277793975704,-1.7855183197504734,-4.065072062840379,4.175139000234502,-13.781694356732073,-3.1055043591466216,-21.9056464910529,-3.8785606620020348,3.7177624485454643,-12.387467782403462,2.4874020338521285,-9.084170344804424,3.5270903542700065,-12.023460278853085,-1.6713418462242267
9.918106009024287,-37.34082507235233,4.213312573875573,-0.5896189085189518,-8.683079657686466,3.339212502063273,0.8600205603420328,-14.262140343688127,-10.261005976306295,-19.85717817893616,0.45652484225691325,5.862633915048944,-12.272218748611278,2.3780383139371377,-10.649011821829308,1.7972053175344787,-13.795535752943248,-1.1607274500640266
-14.997722176240675,11.168136079799666,-13.057363867623328,-1.4391085362651879,-3.660784949314632,0.6855270298045548,-2.455403423721183,-14.554896500105185,-8.336259495032861,-15.955314043403376,-0.3851989044783357,6.35071394262201,-10.59884515695883,1.1928275735679383,-10.16260581641578,-0.41693444353184717,-14.497734696259236,0.5242835921215807
-3.292639926308731,3.523396303522839,-9.52709894637675,-3.070482677392006,-8.105757934404814,4.185000931173976,-4.111293689985271,-13.585829260089653,-7.097236810570893,-12.934632635838014,0.5298716699669521,7.135172529926461,-11.07857022049743,2.1542395617790557,-11.726678155465198,-0.9668711391266953,-12.274757495953732,0.7467930208086635
-5.8465197144929375,-6.95400612244623,6.796062309680892,-0.991533160260722,-3.658422438928368,2.7045965429309207,-5.279885551660783,-13.991794873860753,-11.134045728758812,-2.689701515094944,2.71335240850187,4.114398147874265,-8.926389512489326,3.211225962518194,-9.87249525047859,-4.637847521076221,-7.419772207047712,0.2879227519310028
-17.776661568101225,-9.326491225740682,14.91559635493146,-1.1594299240871888,-4.479230056790329,0.052910654033467175,-7.426387425999565,-12.940811829272697,-7.946685606791542,-5.0452000646651545,0.9892881989512186,-1.3443888904485455,-9.611357029640232,3.9729200540152942,-13.194037119960228,-5.961044562453406,-4.132253838619651,-5.442381618568806
-8.907007896980337,4.511447440604623,-12.122141564906874,-3.378905172832094,-1.6814059910086419,-3.184165113579658,-9.672221623847577,-14.632251587209169,-13.062923236986789,-5.645596748845401,0.5334450059065432,-1.7215322141432026,-10.106299044293912,2.0953004336738097,-13.97644011742904,-7.182605587607856,-4.6585199115503855,-5.115963347486286
-11.757767265821983,-16.90590419843594,17.48101676386897,-5.59919391921559,-1.02683672853924,-3.5886643694207194,-10.845836667097629,-13.792680498746972,-12.810857067078704,-0.19410538173943337,-4.904366129520752,1.1274799587823843,-9.43485000045272,1.5820990405168818,-14.172955722081774,-7.228311581801414,-1.4791112152835773,-6.936214098120505
18.007496354798647,-34.12490316291763,10.75479619159832,-6.550792946877308,6.664225239814485,-10.145153369196455,-9.970995765543165,-14.621461395736873,-13.929049134688107,1.5433475398594894,-1.4568389739924397,1.9291370054733523,-7.597217335388994,0.9682147096564266,-14.760256780124749,-6.684125884821658,-1.2349381109516564,-5.825073137742953
-2.718128693426423,15.257663466588332,-9.25368214570498,-6.91735367121725,3.715648657637484,-2.4432181890045506,-14.372369026536074,-14.38425325417029,-19.24974771923832,8.746439015520714,4.137550310886974,2.7342573491228013,-7.7186517279083695,3.47611825853776,-15.054833243222973,-8.186825099499263,-0.6058186870115776,-4.907730053382505
-4.500160690582342,-5.2838070279179155,3.256957363661563,-2.5972980500626814,1.0650199196008612,-6.65518650798221,-14.186863059138862,-14.643651319942087,-19.593294859842413,9.59843383637827,0.25743938139273526,0.613113237224729,-10.873586838173704,1.2929564368203863,-15.056777854359279,-9.783272711771524,1.6776192332225826,-7.602347687086244
-16.343116607451883,17.826556172767088,-5.81577678367944,-0.32905698734762173,0.567755396257499,-2.663616692084357,-15.078963703575216,-13.544225650808972,-13.592647556241342,6.345313307604151,-0.011124975899332085,2.59706501888153,-8.175362325530081,1.2545376955467504,-15.547443813699578,-8.250782206552323,2.19717913711834,-7.561314789435691
10.484051192866183,-14.72924855809831,6.8880496383841,-4.018986696224064,5.153506427529968,-4.433617885375867,-13.923958522420406,-14.211086784400809,-15.408339196195742,11.682438877209776,2.7458213317954105,-0.3960554358225341,-7.436786877380037,2.481709808420661,-14.964397023140751,-7.495682672593475,3.980078227835964,-6.737927834414929
-17.770248971084772,24.296735347186523,-10.097293724177765,-4.487305967833162,3.591551880638981,-7.765958993810425,-19.70669297915538,-13.90987660199481,-12.052047074935905,6.468750671581937,-0.9446109790111628,-1.5302059334829288,-12.564355012793062,-0.9828810309633944,-13.405383364295838,-10.838357286298034,-0.29818385002694825,-7.085482998251312
-18.3900687197638,-12.26578424519488,23.50275534023148,-3.687215709723628,1.4483017942461416,-7.387173168617188,-16.899917678195575,-12.054703042164505,-16.70771847457689,11.114575554527427,0.24578848506141904,-5.492958899399579,-9.495532477389691,-1.7174772090684245,-14.483825696708623,-9.196656711595178,-0.09073808036093212,-8.40880576855027
17.218319275458796,-25.39193547319414,-8.13398201354545,-1.228130791346824,4.778454796035804,-8.863802063491983,-21.129200039632053,-13.235530070366679,-19.023780900281803,7.260119555384483,3.4848588756554175,-9.256926533320474,-9.558792841920994,-2.5543826920324006,-13.121606279280998,-13.21529556425331,-1.0618973536646301,-10.122090160574984
-49.423910508812625,29.743108871312995,4.466723036126705,-0.43045991807383177,3.523182300589374,-7.2153507058584765,-20.187649054740863,-13.057805387029767,-10.015865785750862,3.8897579644387577,-1.9698364771802468,-7.5485942208872014,-10.605836906093902,-2.126617371189126,-12.639171236464886,-11.56599733332649,-2.332902984150113,-10.077005731043641
-10.501233186057611,-1.7459014475551964,-8.520510392389374,1.0495374361023249,6.862230461862602,-11.817011195592777,-18.567844592742272,-13.67004114072148,-17.321252656790293,-2.3170071402465933,4.389743782127456,-4.469591574921317,-11.757911440849487,-3.266482601379777,-14.013179087895992,-8.15509333710509,-5.271121291751596,-6.222879057801821
-6.836252210373237,-8.13858493029942,-5.395922724750442,0.7703728472932028,2.2953270780368125,-4.504492150556009,-18.906866582099823,-12.923804806674628,-8.615364110778337,-1.3015612117200295,-5.561912347262506,-4.121549348298121,-9.499499566359347,-4.704653175986209,-12.556137531523401,-7.279546187462685,-7.142290462933087,-4.516970590331978
-4.053581197699929,-9.650165832082823,-4.812236549525066,-1.2679982745407652,7.693757109514398,-7.543805810189724,-21.88863708235376,-11.307418773453687,-4.211140176684069,-0.09539213213130893,-7.703424607389101,-7.774024937571522,-7.7370679721545095,-5.855406481169699,-10.611909612402316,-8.841720490795709,-5.895749787979096,-6.619599293357604
-32.13428041599417,9.832812113403833,-0.8124226727022226,-1.745257010852712,2.646971386324019,-7.067599735397111,-19.70085151106681,-13.313168744564337,-3.8157331935266754,-5.046381481984007,-8.87091502822007,-7.126118282340348,-11.158340575768662,-5.449414022131908,-12.086880228485484,-8.740013778359023,-7.977058843605919,-9.405853848826252
-23.88995452802418,-21.272844266004657,13.244153572010173,4.026124276207785,3.952019761537602,-6.005651934191917,-22.890857002596913,-11.714407618547316,-2.2534039573817104,-8.927982816572824,-12.775456568419651,-3.9356776033610057,-10.778952972436741,-6.318970579098356,-11.2193159709321,-8.341657271373514,-8.796449437998353,-11.118030188773613
-47.095200837206235,20.765153356983387,-1.0220900386117107,6.866274495616727,3.307912929784425,-10.022156253624386,-23.255710980386795,-7.390076782328343,-14.954191883684382,9.939698019984544,-11.604507414119963,-3.866861745320895,-11.4819351466267,-6.12050878445174,-11.524966669911317,-8.232620485608793,-2.885230559542748,-13.123470723539587
8.017159216221387,-11.418792079233022,-22.51717064540888,4.724337971011949,2.6677243855471375,-5.34741534171585,-23.823107209300606,-8.93407519840553,-11.937282660599255,9.954341768331798,-12.291843029021102,-6.919681616041515,-8.677511573438256,-5.537849185968838,-12.710928177390404,-8.510584427121975,-2.8413899395885345,-10.73473667640375
-43.22377798219462,18.89608967879795,-1.3380706868858132,5.8035221394494565,9.355703445076198,-13.466175100285456,-20.98000918475924,-6.971273798417702,-6.874867244394284,5.0808855268328355,-13.665644917044178,-4.402610216147636,-8.420595684087456,-6.426703077051535,-10.285011370507139,-6.92944450678579,-2.121995036735612,-10.39737025803311
-8.823007938817417,-4.4053190690171355,-12.778994075289411,3.756031571456057,0.3245423852643276,-2.932685316352831,-22.34401641766545,-7.4588049226254185,-10.411742063822242,3.7177774493624085,-11.624360807441871,-3.932964089685255,-8.465188278086888,-5.564577022017608,-11.278638280400866,-7.10256069092075,-2.582675734213332,-11.330239432869968
-19.153721922702097,9.107985652483212,-16.312063512711727,9.617149012916322,5.848059773290744,-4.313859784154067,-22.934875685004954,-6.197392197606291,-7.118082340336805,7.525083889706417,-14.566627557204178,-2.581024762097698,-7.053574136930873,-4.6118622457411,-11.004299908166091,-4.928331602684164,0.17103670201595733,-11.873290943122383
-18.746427244328935,-9.022134089272685,7.6918433335183245,4.050600474849077,6.199311431369722,-4.718916935433002,-22.850531844364333,-4.456589014059311,3.3966493183987367,4.6861053594388125,-15.94944613530016,-8.159426067688603,-5.846054231339917,-5.131289783314928,-8.583136878393923,-6.266245469486641,1.1584712216030404,-8.413315084621885
-14.925553614708045,-4.888666517301661,-9.811377808639769,5.220684648858439,9.386151619966041,-8.15186322689135,-24.23973774390786,-4.5801802776434535,-3.5750443125076963,-0.5999859214535483,-12.452521254668072,-7.777361803077854,-5.038058719122311,-6.830091055504661,-8.409805515084486,-7.307674338814396,1.3560822118594054,-12.76702337132168
-5.640383152245203,6.469036940499821,-28.87979175978058,4.2405066956089295,7.205250009146808,-6.311828821477069,-25.54024741344519,-2.9548251773787335,-7.232148952626094,0.45589840894527356,-12.865115694043942,-4.169265038107685,-6.387536895825907,-5.509185224958469,-9.703099622848452,-6.001829659571254,-1.7753512755576324,-12.434348220940791
-5.63732471292731,-12.156680804883708,-6.055783225596319,-2.3079942674627327,-1.1247351725910288,-1.7379519853027028,-23.822601692137948,-3.682140864591574,-2.8871728423764615,-3.4746453701218964,-12.792695574257237,-7.003269224029323,-7.941439234966545,-5.758685314590156,-10.412260070602784,-6.255045094514275,0.5532509966782584,-14.5444259420185
-2.8069040240428826,-25.804405512826612,-0.7153357969378575,1.2003807355743767,3.6346913762546973,-6.9304594116850655,-26.99734561549414,-4.027699232665171,-10.950658835076098,-4.57910149543372,-9.598564574696473,-2.997939692941112,-7.746711522365313,-8.653022851687977,-9.463102794927604,-8.457975714659831,-2.693548632458004,-14.312146596202474
-38.26311057591133,5.370165446784968,1.4971622297072518,5.683422979957411,3.2214531262159722,-6.264147553493558,-27.642753933194925,-1.843015228859354,-10.035632402133981,-8.912350856072983,-7.482066398522214,0.7176897373533402,-6.2917383701065255,-9.504819747678166,-9.9807242068809,-6.7511812647177925,-5.558737669792418,-11.34699653137124
-10.344313143071918,-9.45472020552829,-6.547378776805938,5.8675761841743315,3.4949357830545535,-7.454011663964676,-25.56376896176011,-2.694561946479439,-18.892445611323943,-5.146194118986758,-1.6580308506589212,5.21783463982379,-8.459498031349636,-10.072105719945325,-8.547149761085954,-5.138653276820662,-6.968187239151508,-10.43432023560166
-49.716639640497405,11.069782523251217,26.128308436305584,0.2879365338433399,-3.552873587076771,-0.7343104074930711,-25.252899227226436,-0.9181691006632313,-8.712126485851705,0.5668350704034264,-6.67751846060804,2.59219772904499,-9.464847833981231,-9.183175144713102,-6.431974058178107,-5.378255285639315,-1.7461399693043766,-8.546840834404147
8.661423819926906,-4.8348164938476295,-9.364227978755252,0.07744931881335437,-0.5389749821248326,-6.027254336790629,-22.022820257469654,0.26348243971522933,-7.913134179613291,3.24609848253057,-5.841111074616025,5.047975437921816,-6.280479792169281,-10.939837136890695,-6.174339928427549,-4.930910279234942,-0.1467580033569007,-11.73944907304754
5.6076985355668825,-14.589792253944584,-3.6483891465515184,1.915714940035865,-1.5261601849856083,-2.727090724288592,-22.807473129442528,0.5574471451346703,-0.6749669818385549,-5.214087235456526,-9.793555924316847,4.967842216803877,-5.742513054916021,-9.971096699389337,-6.993024635501025,-3.796642503828526,-1.4865331437951816,-13.07855398584108
-20.205408001237004,10.418524842541785,0.20869297155858746,0.2362064527422416,1.8840598330721938,-7.045033744325399,-21.74762933748712,1.9169105805210371,-1.1580448337680522,2.335041341492534,-14.433279613490026,3.9142993714559577,-6.776785219512366,-9.109205600703591,-5.470044049314728,-3.6356577987417014,-0.7850131651028818,-12.075973126741767
-12.331774918294258,7.982107511464665,3.085871004143586,-5.937688597774046,1.7813321170386867,-1.500376086018357,-23.042801893964814,-0.34566501134598226,-11.120250121039962,7.436085607892377,-8.236718616707005,4.719398129478695,-5.867685799602558,-8.06136443343446,-5.5117421335287755,-3.666718507777966,0.49284678743758903,-11.270911609918404
-3.0961624556561524,-14.77007457887353,14.358222506674835,-8.500412103683344,-0.17423709534273085,-4.355142186059519,-20.931408513878587,0.019852451318627118,-6.635475028461162,1.2021081327923522,-10.149522443494007,3.574462707708029,-7.11690348120414,-9.366844679518966,-4.77436506094217,-4.182822122350432,-1.1687174797362054,-9.491577988183007
-38.20243658092886,24.487409609160082,6.5838585446776605,-9.014521475590636,1.0954800374927811,-6.234214873601033,-20.589527922549387,2.720529340760912,-5.184489030086731,-4.159753976869677,-6.206680280782518,-0.5947666148602657,-5.64161032220445,-11.365631339024782,-4.234519743072317,-1.7659720136488852,-3.328344500959151,-8.593568273151291
8.327848568703075,6.123785977521488,-22.678726789877146,-5.526894699089057,-4.077706664894912,-1.4734699507276572,-19.2829559315702,1.2133394765635295,-6.962637081782145,-3.962006909488837,-2.7559893633347663,-0.0733535880542675,-7.59429850532204,-11.518786015675543,-2.3297094189560212,-2.1779991307295057,-4.521246685257175,-5.54958893695344
-4.132487064912052,-13.317154879876494,22.0796755147182,-9.658834835843315,-1.5334980100214275,-4.526276532577567,-16.621268080781654,2.8226585309080434,-4.9385868730153,9.705551294176537,-8.684346265069584,-1.1114194219247233,-6.334291770133511,-9.631152264362779,-2.673295124270206,-1.2196449337600905,-2.2083977578375986,-5.9262250064473445
-28.51244234597052,32.8647840980169,3.0639348490264844,-5.687476883864486,-4.358103485165405,-1.7205734164181834,-15.53439697146457,2.6656473484735024,3.036111377061559,-12.278994897082436,4.621926559805207,6.34975667750355,-5.279656632904587,-11.464691901493259,0.008218889672544805,-2.2112968799033803,-5.472038963122438,-3.7664455514298227
2.962429404513145,-12.36408118058214,13.927766313743671,-4.843491274834731,-5.0319485497991545,-3.79873327481697,-13.385777849604537,5.527585674953368,-8.917859513297717,-5.16863323454441,7.865468661999994,5.9036473487604475,-7.457824220503351,-10.76946074700349,-0.24230931230200348,1.7807202804875586,-7.476196331325431,-2.000071331913846
-9.611760334553043,21.7019426177839,-0.9937980702838072,-6.1503300601104325,-6.973124661552103,-3.8270766549666355,-13.788935102329361,3.3029341229647535,-15.897787417281043,5.450241707136524,7.686969870982825,7.7066299920754755,-8.376575270448718,-13.698043589006666,0.18843930031620992,0.5999772632019098,-8.31859185759606,-0.8225036809955437
-25.414091943487986,13.478934125789415,20.897798631498414,-8.72910215133923,-7.642600194184439,-2.000937973808223,-12.34945214066154,1.851212648937512,-12.337188341153684,7.565664064153857,2.13324079241983,2.8718221471165157,-9.207835081286742,-12.730937499078673,1.3981075448817002,0.39888737571321675,-6.339104617479329,-1.698691810767631
6.825736972964059,-10.274919200632777,11.242085447977136,-9.161814321194896,-4.696658029473644,-6.5235851798393085,-13.364444909411233,3.516265007757873,-13.177699329552414,9.869111739835745,2.3372311207930476,-0.3975546318882497,-7.21721501219211,-13.239457084956515,0.554608466154896,-1.1663594800262977,-4.272208384904623,-2.3825880260132966
-18.753270514941107,20.75392376826586,-1.640244216885896,-4.421103393493147,-4.6784343940441095,-3.0393470909638953,-14.49029663448395,3.1222913473251914,-9.044175767809417,1.8134907144883101,-0.09965556403572151,3.269646260375817,-7.287625854291722,-11.610400637083004,0.09937550776926507,-0.2871357886149555,-4.657057836399982,-0.2375108500957488
-21.778796358391727,22.67743407627685,-3.2958944019682317,-5.347004369920056,-3.7793440178309163,-5.220322788563352,-13.969330545171957,3.8920597921111906,-0.5225581994428943,-5.370614068475776,-1.9547426887598451,0.10365390274729691,-7.270616846548322,-11.65255041237154,0.8136629623091256,-0.9674332628978912,0.41657417140285347,-4.931651204533966
8.296197798822256,-2.844235254540991,-0.3656393382769574,-5.884762275418836,-7.46828586902406,0.6055570381917867,-13.071253332589635,3.5795072850416574,-19.644575187887853,8.824870588666919,7.12366327118716,2.897602258689833,-7.459176507651886,-10.045669296696229,1.4279150108301089,-0.27754408491579774,-0.28199865343404085,-2.3047085195447323
7.896530024724292,-10.204946497377195,4.904346749007473,-4.374219498982587,-3.9287378044345265,-4.6049800969656385,-14.62828900556389,3.4542516225979973,-11.917193262010159,0.35625462266305874,4.967230299703985,4.815419117084328,-7.462684991634813,-11.575108212355591,-0.3039991354030853,-0.36596294502612126,-2.6511937629562503,-3.4897339862945174
-11.258859519719348,-4.482927387507884,13.295281300422072,-3.256842564957537,-5.367980617467829,-4.250130384841137,-13.953009018724376,4.004650831806632,-5.270507391662367,1.25523053934244,-1.8809960880900665,0.1929247687151534,-7.867095711902802,-10.088546739290257,0.3054917166858626,-1.9163184547731187,-3.3706868864460944,-5.068772543263615
4.932432960562846,5.6302596531142015,-13.474712555505576,0.9830251084423463,-7.09850489033173,0.49820241799313614,-13.97528195806553,3.765910232463849,-9.177295461927937,11.033466409795796,-3.655263016675441,-0.12990276451213223,-6.426283519111912,-8.90646075479611,-0.5522621994672914,-0.9246677246186488,0.48921893560380525,-4.698101262202956
-8.764942807295952,9.782872346725064,-4.017867748014368,-0.9321228912121047,-1.7960410258694468,-3.153155387946679,-13.913975651932777,3.7146806880805627,-12.797521250530867,9.085138899290339,-1.7227980446361517,1.5031192961444058,-5.679348476912285,-8.517247129033418,-0.3381551084013825,-0.613740663375054,0.6275842011849093,-3.94030377672871
-8.50263701163247,11.002280568943222,-13.901477597488515,2.814279863388144,-1.8631817120591307,-2.4110484586239407,-13.378582227014068,3.167433465563839,-11.443582047660957,-4.4921313224043935,4.990616720609246,2.357542472730172,-2.9895264142513547,-9.018667183693498,-0.517046146788541,-1.960139187453795,-0.318860036933021,-5.52985352393176
-25.824070911635093,8.507204112827676,6.972841217775045,0.11265444084416121,-0.4639435803092695,-4.111526097745573,-13.052822262517818,1.5382995040359582,-2.2833681341660252,-8.408990846838055,-0.8004540210096618,1.261441861887791,-3.1420374511368756,-9.141269247855213,-1.8701878362667141,-1.9364979013318493,-1.8618493452102705,-5.462836759621954
22.475183178491527,-16.647975081521007,-7.80221013313641,-0.3454784597351219,1.3273810615294144,-2.8834189789786393,-14.108698325550193,4.491506990652004,-6.801543059940929,3.4869671757724916,-0.1504220189227965,1.1445174072510413,-1.2539815233135236,-8.396858900247981,-1.467836138748794,-0.05455269009113772,0.4908517239461645,-4.813539082659101
-16.634516205933245,-7.626466881950602,22.536285761253964,-3.6383385121294394,-2.055754840772563,-0.6798871818083532,-12.054057321538313,2.7496516982155192,-3.6110184767588223,-2.8868361448165274,1.5695256477932258,-0.4347068649178798,-1.719940019024211,-7.859760851508003,-0.18889644691776653,-2.2714503285078234,1.465708277067705,-7.293001900107849
-4.3814787872365635,-16.284544054823442,4.236866557211313,-1.074403038050578,-3.3867330582162576,-1.602559972899968,-14.701614661881962,3.9301202188498294,-4.528333756279519,-11.709871256885855,0.25775449277820606,-1.5231088024543284,-4.344576729736222,-8.311321844597115,-2.232634883585469,-0.8722540162837109,-3.2342335007225493,-6.846489399402254
-19.38013966836983,18.609185620955984,-19.34046104061389,1.096217397664664,-4.911734805373067,-0.28026473883270686,-14.824787010100302,4.029029792554484,-10.62767297857722,-7.552236305106821,2.2620102015620844,-3.0972986081849045,-5.514530782774671,-7.7984671162445025,-0.6653327614604265,-2.009426101326158,-4.917444304325633,-5.231881744407065
-0.49670368524803266,-28.14250962301784,2.683957578117152,5.021978885602351,-5.458919017576292,-4.1349917474057385,-13.302576682730304,4.70664826164607,-8.920501819594264,-9.75018162725584,0.8439032643843021,-3.106496662025937,-6.011035904010917,-8.372084433240978,-2.030037098721648,-1.7766817501468335,-5.3417693378863085,-7.527419001457119
-35.134794338699045,8.40428636048096,2.730940172249605,6.698900896358303,-2.489234870041058,-5.256464997628647,-12.283529830626804,2.0567539054696073,-2.2388360871830457,-10.1981292551267,-3.8012542888442633,-1.0624472784031003,-3.880905440146403,-7.786116149121291,-3.592307167533585,-2.7131470360795897,-4.507210793849049,-8.557275233893659
-26.710848666349914,-3.2954073533581143,1.2109303241588059,7.689495102842502,-4.205981532178441,-4.1329730839037095,-17.041233495674245,4.868632797893122,2.1907138200373524,-14.364923744135638,-5.130395322730889,-3.8012253458260226,-4.690595126755753,-8.87270222774712,-3.594277209853402,-3.353980749560745,-2.706740393132506,-10.95824040306319
5.438962742747016,-31.209854941848704,-12.618445508703552,12.38834866294082,-7.288843393971887,-3.2059583579985826,-14.977901478047308,3.669575135654245,-15.163334095050088,-4.281548634114866,-0.9950490051508574,-5.561057310498608,-5.803306980497005,-9.874063941596592,-2.81718028136663,-3.3085768909567386,-7.362341193097942,-8.187273561105666
-31.069516383326842,-7.369270172293121,12.415448379263253,10.346073262349005,-6.171375358152552,-1.1082102728546124,-15.664047793365995,3.4402181380556396,-9.37834973647691,0.12981276785034623,-3.7000880354905163,-2.7286399098421485,-3.9962930855828063,-9.325390852581876,-3.8977440728551525,-2.2839872753507886,-2.2628194430487625,-7.471071762391187
-3.812320632315629,-15.954623887532598,0.7255030141013492,8.301043889935492,-0.8536220313383698,-6.335949014873835,-12.263679321319177,3.0087628316618584,-9.849239711249808,-0.15426302656880786,0.7195489986704509,-1.4564438766162597,-4.835998703808372,-8.593942031464223,-1.7577323796330848,-1.2568144210165841,-3.0334009833168594,-5.391635009561851
-19.3339708871479,2.117019933059476,-8.625201614001476,6.839198956491266,-6.081945278255014,-1.2131194062714519,-13.175403617419107,2.765935476070572,-2.4155550421867,-15.387836171531,1.0332285732186435,-2.2327909710541425,-3.34182978480786,-9.046971571634629,-2.842519912648209,-2.473211556836623,-5.670102193250829,-6.148263642090605
-4.781715634122275,-27.178900403431033,2.3323446768318075,6.644135677664005,-9.258538204147008,0.29522691843905946,-13.8093420228119,4.079041078635788,5.110165136556699,-14.90637023269184,-7.055981262360051,-6.131949324518397,-4.396620713836825,-7.364157042258942,-4.319993653311872,-2.6128408205282567,-3.9228077379860675,-7.592501480629629
-7.324162294636757,-5.598690875884499,-15.230740104277935,4.98143144488792,-6.281815769057942,-2.2991925583176878,-15.044442563477222,4.506734083934768,1.790337362462619,-13.163201230633177,-4.895441498045642,-6.903856463652671,-3.1174286035655925,-7.647159247244947,-3.7486691322891827,-4.605459823869632,-2.772038710524445,-10.114990165313039
-26.375279735247332,-4.041861263673603,-3.6963990946406495,6.148022037780926,-5.745697598354693,-4.797087865081221,-13.365048212122371,4.049113699667259,1.004158759234528,-16.310753768165736,-4.594699235942368,-8.064223810866133,-3.5081617211836793,-9.01708921120493,-1.9097648992477794,-5.423704144305264,-2.3154255126206493,-8.735192191680115
-3.145020143853504,-21.238849255174244,-7.401254015430991,2.331284575867498,-11.751845704305266,6.2783172293960074,-18.634605612405252,3.194569051709541,7.536948545696486,-28.450636385389352,-4.493558184034648,-4.04659281482419,-4.10389174940083,-9.32550229011306,-4.955672812373047,-2.528498183767931,-7.142850912752612,-9.800864463291296
-7.849206949527854,-28.08763446495761,5.686428339333336,1.2461779980304932,-5.64766706771248,-2.4719153797858784,-15.325542265926185,4.286987504761237,-3.904554858567625,-21.848030806988127,-1.8575848723194923,-1.3940645392082471,-3.342029556295735,-9.256023244317873,-5.757329679067808,-0.8027547290309993,-8.660399086440355,-9.796328672374543
-27.499265577179095,9.787323597238998,-8.281680757522752,2.0137812693557517,-3.449064828823418,-7.414602642213587,-9.980928265145906,4.2990818516397145,-2.753382574278671,-18.964193652634652,-3.6204600671485005,1.3581948259914634,-4.347554525126423,-7.441459220662935,-4.705315913559035,-0.051184225243081194,-7.6492935947435985,-11.553656155688287
-12.09433461237051,-7.615482872078782,-4.090048856531019,-0.15113507035672713,-8.47643431088386,-0.053510331209265516,-9.046169310633566,3.816902366477727,-0.1424177240751412,-22.045225795323173,-4.508644980043471,2.745287088140117,-4.483636423293781,-7.5928147736210185,-2.3855250354416473,0.7027646460600705,-8.699406204075942,-9.506349128488873
-2.6505632054294352,-15.646609667826901,-6.055452302459174,-2.4164955479221124,-7.74132662740909,-4.021799844769139,-7.9313398473347405,6.453890325188738,-5.642016613911732,-26.696498243965042,1.1420321748401623,4.4273619594330285,-4.922094000623517,-8.733517844294258,-1.0440297817123234,1.4590656322593398,-9.955194180973102,-8.43962678832697
-10.886775305593947,-9.32548968010085,-5.974637775374418,-1.2666192841353423,-8.568101228075784,-2.81530052019877,-7.320025702126884,3.4209550257584187,-6.263594666491915,-20.613101529679824,-2.9772463124148265,2.400420463414741,-5.4675348275945765,-8.324467439544819,-2.047980873985548,0.55751071643631,-10.83066177421852,-6.497978530227071
-16.197079804741414,-4.082021364840148,-5.605439238279603,-4.709437488673501,-11.64038961573399,-1.3168859396714812,-7.895806152778306,5.6558702571595205,-7.37821960338359,-13.756087421659323,-6.124102099681813,-3.3355687717785276,-6.022221464006417,-7.928182556502936,-0.8074045427367196,-0.43940288782284975,-9.372601244202812,-5.146253442250776
-15.944606799277885,-8.998347954204494,1.302246260012586,-4.444037498370893,-10.708122123099244,-0.7960924733675752,-6.533602100811457,3.490627586277599,-11.231908679378474,-11.105959446177557,0.1977171631411636,-5.9445950293957175,-4.730574464011674,-7.251680032335003,-0.34962841849930903,-2.215306196198382,-8.901319207564644,-4.189115561602
-29.36781728854256,10.496399266120225,-4.197173051861129,-4.962669317003607,-9.67763243617988,-1.4482205422807386,-7.237343007025366,4.542639497095371,-8.84003631724294,-8.658705562904276,-3.5433055655098933,-6.989212945601163,-3.936294593408988,-6.392602567449913,-1.6511652703267519,-1.8404940572476884,-9.02612456176292,-6.55627314610075
-29.317742913879524,-7.903387114616102,20.475089585184033,-6.851272030739942,-7.279392393794003,-3.5662275194886583,-5.514728510854674,2.3666047724148926,-4.499426950560519,-6.414277628767067,-7.581363260990553,-5.1022446337058955,-3.9322675307232373,-7.304084829295451,-1.9775314358887552,-0.7798598558567975,-6.914879126323093,-5.509314721920722
-4.56362426763398,-4.724110473760055,7.056288125179863,-9.816863732647445,-4.294684761354834,0.4672069412966504,-6.150937178755498,2.431467337998799,3.8408506743634128,2.1704445091055717,-10.939843490968501,-7.119762041335899,-2.5699329776690867,-3.5406907410837043,0.23386615889376294,-1.6701901009967977,1.8270826745292794,-6.614700621943502
21.652118375344582,-7.016929884254023,-17.69534005982596,-11.320333142210142,-2.188394874382764,-0.1879089520515409,-8.462307787804018,2.295894982383627,3.876042517758158,-5.170448946636689,-4.536539376763698,-8.549538905278421,-1.997668800665629,-3.5009556396025694,-1.5599695629584005,-1.484122628668235,3.234774800550028,-8.114557226195803
-1.550073241386599,-1.207382467253142,1.396847057086564,-10.971037894640663,-4.476219007438292,-1.7229052436180678,-2.292372025972213,0.7881068985933748,5.957992686989304,-0.6044437422779936,-11.22332305705054,-6.46187243383102,-0.6528564121465479,-4.059796443757616,-1.1088694529690653,-1.8818670696012993,3.265393705937875,-8.251007481960634
-12.352722886563694,4.2083474244068135,5.8358842678146345,-5.057971078128971,-9.302676131695023,5.0420644365427325,-6.391346414050254,3.0840761405579116,-3.48759868157998,3.2706732866731443,-6.195087483152223,-0.9544493943898383,-3.8089167788557816,-3.5569911001200687,0.9036383413225533,-1.1056124310298743,-0.22945310470070623,-5.363828655099418
-8.997862256919422,-8.64106559091389,18.864337159049686,-3.9328389656974587,-2.6050661143262897,-1.0847100392992317,-6.4034673661173045,4.3986869895858804,-7.7611297168808075,5.869020638132568,-1.7566648697774152,0.9413442940656771,-2.578896365775144,-4.238622094365979,0.5713224880395522,0.5516394419068411,2.125458667687397,-3.8475744912803194
-9.259068929655307,1.6513033782608666,8.450492709534236,-5.447155686480676,-4.207923074229869,0.5025746452953923,-5.551358371470549,3.4625030636784704,-2.0772406241579553,-0.5242949556903973,-0.6424269204609416,-1.3604660280116732,-0.9666612288338321,-4.835088209530944,1.2146266521306828,-1.2070809505295124,-0.3144799716866551,-3.4092238149615373
-10.89008171748865,-5.637778240600594,19.321623971216436,-5.596936891422109,-1.3180943587951575,-1.5243585744706474,-5.299797498204462,5.451499492468128,5.067977881789535,-6.143428044852929,-1.778091508808707,0.050368793595890304,0.44194551354044265,-6.322911203883386,1.271109704490021,1.9191050468144661,-2.0803474831949096,-1.3143085680923825
8.27754147805037,-24.160510296926713,9.191959872214737,-1.8430629097393219,1.9627851933733034,-4.9193602603666635,-6.039321626506464,2.3578571208612895,-1.950577866523206,-17.140741620392436,6.945950077996596,3.611297552535617,0.2798207792792695,-7.725452995605348,-1.0169827648978842,1.8245754085498547,-7.1760197321631445,-1.8597146200324914
-6.346739185772837,6.826270575769492,-13.637558908898383,-1.2168711732436144,-5.205301786096535,1.64588946193917,-6.207306840996068,1.9943113026942088,-6.921586246137295,-14.863529508035072,4.728650062696973,2.6815669993462983,-0.37869312816694745,-6.99183533583459,-2.329200492816355,1.9273210943238506,-4.566077237183297,-7.779800652482855
3.9295167012640846,-17.268824371769977,-8.541277328105831,-4.108971346974557,-3.095498475699708,-4.680497999494064,-3.6551768475058424,-0.033619545891256486,-11.700405627093193,-13.765056303694891,3.1913323170935914,-3.7154267318768213,-0.7522253192209369,-7.637666151243387,-4.130320310147816,1.055418911987224,-3.430249383994834,-13.312698627439417
-8.550527886501058,-1.327103386659772,-9.797024626511638,-7.687266228455919,-7.528363951850849,-0.9489305504296395,-6.195438964151343,0.18049145656854704,-9.646169127719116,-13.356949260879757,-0.00973421699891297,-4.349069522516934,-2.5008466767676527,-7.221426222295115,-5.346015644966027,0.5760465341322365,-7.6747442739238725,-12.696537198078481
-1.4032721081560737,-6.677572523279522,-5.002227836247694,-11.268127450446357,-6.394342113037809,-1.319756810064801,-6.796618183329187,1.8555001926364505,-9.743246503292895,-9.537496185555812,-1.6517875122716124,-3.4186697169969675,-1.6204775002644958,-7.207900953494317,-5.390246480867871,1.563408020798831,-7.045394397008652,-13.060263427543344
-9.394728491154384,4.766343496018539,1.64387262912971,-14.265582934210705,-7.506054363268475,-1.3983542540107088,-4.774986840304077,1.768819543633635,-9.550050203846517,2.0879913574267377,-5.055132244884998,-4.73290420890101,-2.017313460909577,-7.88997790399668,-3.1886819704255345,1.1853974213504257,-2.128038134475922,-10.88812743824393
-8.30563329573621,6.734771042384629,3.012306612097518,-11.796718581136037,-2.562593517495717,-6.751189357383601,-1.6929395870402573,1.6784076148549045,-7.503910710057973,9.31238895621114,-5.629794265587581,-6.533958202945936,-1.1521378774415325,-7.119096185244512,-1.670956497390108,0.6138757129805303,-0.05157922078349131,-10.086364362952079
-8.487561687099559,12.216249841708526,-10.662652551356306,-3.66619036560882,-6.896224056162677,-1.5576830332181055,-2.6285440748369773,0.7054639796696127,-6.3390975185957,5.006777617305918,-5.524181632638978,-3.7436532284189354,-0.9779886882892441,-7.238946031884247,-2.0088630252547386,-0.15118943915006167,-0.4252721928493681,-8.799399454100055
-15.702174060393407,-6.426298484584705,5.932236406974809,-1.1046084071058129,-8.006753091360931,-3.689176094358384,-1.4292222551510676,0.9009208426913661,-3.516360690911185,-3.5044132266383468,-9.035170838230206,-1.2448997893221807,-1.8853786399206456,-6.882218652780555,-4.397615035880848,0.9409817303737267,-6.471704795814924,-10.249857269689235
-22.722650511392224,0.8079528640614981,-1.7936508964832987,-0.9868935780539418,-8.042647347830481,-4.16113039167583,-0.9269026508182812,0.21408572533454007,2.526973693850433,-20.81099559925796,-5.518002298295131,-0.8932179181593765,-2.799953104261766,-9.173856426965067,-4.833141123047156,3.8903559892555313,-11.745345354571654,-11.019632889379917
-14.021262488298783,14.192205974231495,-27.68782195268475,-0.48093853044137624,-11.007869226757924,-3.0711772102477024,1.417667381405785,-2.038525110635106,-4.713101070664623,-20.056986403606434,-3.6641471567245354,0.43641763380684884,-2.549698518256431,-9.816808632600733,-5.659120946228011,3.3257239308227797,-11.167867440573325,-12.671163025948381
1.0269954327481976,-28.774425526131584,-2.706197061669873,-1.7351792288855359,-7.2342961473278535,-7.645962492436758,-2.8915787557468775,-0.19264194013743707,-8.927589791638663,-16.965174493511206,-3.1805626619749194,-3.1154794368105856,-4.454856248428671,-11.154746054605761,-5.1176070553472846,2.7627300227063323,-12.649420980827628,-11.005074647203159
-14.101722607121438,18.687710807871078,-21.67438192132748,-5.335526368050504,-8.147876061635824,-4.506348665170624,-0.8659994972677971,-0.6935544851703555,-2.3037195423787526,-12.512027261053557,-3.5788887976806585,-4.0292844875131975,-4.706651592944869,-8.597635134894446,-3.5014625401473243,2.5919705587166293,-9.54914957321375,-10.220557335712785
2.7030554150357453,9.115498059214538,-17.696761993323165,-4.934189672064491,-6.424269505426495,-3.222766769585903,1.2444771826237044,-1.9786174704920718,-2.810359754254822,-6.111485607941733,0.6097809650633899,-2.5003337940032613,-1.742436914220617,-9.469681850805555,-3.3496765321645405,4.180618734285613,-7.140438100955208,-6.6065207276770685
-2.3679358172372567,17.11952204011525,-11.379055329475845,-8.246092031998613,-1.9658085042279279,-3.599873543312196,2.5611042217124336,-2.6805008197672837,2.052836014940919,-1.767401630284656,1.9635332024912096,-7.122528725744219,0.9222338170031943,-5.469849029704012,-2.220691457161389,1.0832280242439492,-3.8606266651506136,-4.850437160514641
0.7640372269739188,4.515680333845168,-1.8422745721426708,-12.341461259291515,-1.2178924231322998,-2.024304559321667,3.5723480602812216,-2.506109341562326,1.7389883957606678,-2.116416528710733,0.18947124640201451,-8.71606138406852,3.8734325139947146,-5.973145772099905,-1.9698883718831066,1.8936433662309713,-2.2486775215394523,-4.073284879416544
1.942719071475512,-15.805129772353393,-6.27411170892204,-8.333401622321757,-6.817267544021258,1.3086529731317924,4.571364735282653,-4.287395297391666,-13.029230587876375,-11.845981573466458,6.322997989808478,-9.91770986058997,1.7401096586830338,-7.463754825733389,-3.0854380602667035,3.584438094297301,-6.308416139507047,-3.6890124936765947
7.906643075999156,2.349279989208373,-34.4402678973522,-5.304040192088042,-9.486434666874866,1.9067714765544581,5.655999817239682,-5.973423735998303,-6.313614546032158,-18.651098838741405,3.3717465908868833,-7.895418230349854,0.7724874457053534,-7.304773984258041,-4.004696877322147,2.6398963067754218,-8.910682768069812,-5.357693828687255
12.015231855203897,2.532814575806441,-29.2108897235632,-7.2573001830452535,-4.537807226975284,-0.9135245948271784,4.775633545133552,-5.122628566119082,0.20597682056240352,-18.430018221350974,1.9804923325487058,-5.676594407363254,0.7753777761392548,-6.277317371421336,-5.118174120265478,4.821786872740021,-7.516228643191118,-5.9541706861771555
17.58899703475025,4.0817868501511345,-25.059081454125703,-8.040698481325995,-6.5223723506641464,2.1252788421036373,7.008666078224245,-4.469303771686919,4.674205559077162,-9.131799877185957,-1.659333396291622,-5.312068336156051,1.1629620659223736,-5.65078327895214,-3.88664504770812,6.516735058695889,-5.835897616382361,-2.743913122794572
44.843238665825595,-13.511846762200854,-21.984762528104458,-8.826081146675632,-3.5258685066940565,1.8433830875152788,5.519258108712375,-3.622695528370355,9.727990170321618,3.1889058219289588,-7.059357012332768,-5.336990751080475,2.0330263074854855,-3.569517824948676,-3.2397165585634875,4.99028523717174,0.427403857834868,-4.3206863979148284
41.824186086405,-9.329409767145629,-15.104962836134188,-9.808715519336396,-3.9468430704375876,6.151094037963219,3.335006853649052,-4.047546980067338,7.457213534794237,19.31349245842906,-11.094444338352892,-8.095163691090091,4.4599342105326745,-3.0607496901404225,-3.5678925285284064,3.6604188492258594,3.949500904899171,-5.215538590810958
27.575244837949672,18.09404881581576,-32.15439495622539,-9.523686059506797,-2.511758794427937,4.11077378445891,2.2139636212650906,-1.5444522786043091,5.284023957738162,22.54262020202809,-14.643426951318137,-9.192004570424475,4.830478194704373,-3.8313399922415883,-3.2108625395157038,4.480250669727507,2.5820814840968502,-3.4751938798766346
8.541970986656255,-0.38306467019371304,-1.1592162930379253,-7.970942054123661,-4.591771142767148,1.7772312132266554,3.6212111556006015,0.27337524587037443,4.966420948940113,15.220210550056752,-14.581167511096481,-6.576716018610149,4.023706883904989,-4.611568096239466,-2.266153774603511,3.93406145885173,-0.5496459214960296,-1.931603219581378
22.713369553557182,-17.2013429529525,-6.5932814939961055,-6.9082708616045965,-3.741448099857152,3.7404090900712026,-1.4275413938415085,-1.7189890351927208,-1.7963431723939731,8.772356764435674,-9.833339671397038,-5.132199675652485,2.8210112418268567,-4.61999776426908,-4.542285851079845,3.1937029346854926,0.3162886613090148,-3.026084169143635
29.07333257067473,-30.993488402589154,-2.166728736507334,-5.45669963185593,-3.3787885226861114,1.4064552151402054,-1.0178239428158307,-1.3689844685573673,-7.484462228566956,3.0038828969085056,-2.9389519470004144,-2.124052921631697,1.1248625737617886,-5.321316526764743,-6.132815255175873,5.970127489243629,-0.8747288943231677,-2.2662523600313538
11.703789967198881,0.5263911515908788,-13.758763774653163,-5.0810400813581404,-5.749897547413836,5.810723081710266,-3.450314125744086,-2.4851399591473142,-7.6055201173901334,7.583046557400365,-6.202785370099036,-0.3843638071467108,1.1815178748982724,-5.641106465259778,-5.084451647571825,3.669411687322543,-2.2670333566197343,-2.6793670939592076
26.172136038111198,-14.04925697033919,-17.15016932515288,-8.125022420607596,-9.292227648777617,7.382782911776458,-4.037205703446675,0.3038430643097898,-13.097023897336967,11.279350710343351,-5.562029668566563,-5.772609822443358,1.8192130864451537,-4.993234207341203,-5.498682981929835,3.0298967266723045,0.04585540701997637,-5.046557387032475
4.313406813850431,6.335585010035594,-14.196342417211493,-10.975253575308447,-6.193135180807405,1.923380506580739,-3.0712328039661365,-0.5215586552633242,-6.380420813740124,11.749154358797067,-10.68470398835995,-9.206633725347082,0.7919487837014181,-4.549401600220003,-6.105819942452018,2.000726625499243,-0.2836428770825208,-8.098137508684182
12.730318119366169,-2.675438851368079,-15.541874431894263,-12.166809650288263,-3.190979071861431,1.1514731561745917,-4.263146136208491,1.3865305613244832,7.173272557647795,3.914401411430118,-15.808903130390346,-12.932575652889295,4.935895075570777,-3.430493898210333,-7.589326489294508,1.1678038213482869,1.6275338918596383,-11.443339245331792
15.973245652485204,-32.87898226152796,0.7863306698067198,-9.746476979935663,-6.828802110535752,3.016276612749018,-2.339180048902744,-0.02654680138738552,3.6380685249078244,0.8613770176771052,-18.102452730905945,-12.26287573086911,4.87603683404728,-4.6637019651690075,-6.921670966783251,0.5310837498134707,-1.6424252342865167,-9.613189812619328
13.065745616129385,-8.4925414689511,-28.298520570303133,-0.6868057236687317,-3.922782966115566,-0.0018270212656275042,-4.623413158655719,1.391769027912547,-7.708389539319072,-6.296623682146505,-5.455691780764876,-4.951417144582706,2.175025378802747,-4.63548639445599,-7.227757895087726,2.531964792602251,-3.5502722051709092,-7.978723560448851
7.230655196146508,-23.951052535428502,-2.404162506921635,2.121443311518222,-9.121555685628234,8.210717245007727,-5.06080953115881,4.372049305937399,-11.436021309305037,5.39011920791091,-5.505658214592742,-5.451556218719265,3.3760562554269304,-3.3456402794060853,-7.042576594084449,5.4125619522076045,0.8847192959477201,-6.539797174316178
3.0580180209081638,2.5827706397773653,-13.328760032299384,0.8268022551554779,-5.823276960461468,4.020763918114607,-3.748766767910592,1.2971118830940889,-10.279086894044323,10.628403374182763,-2.23637887433562,-4.974106722283089,3.2057378590548495,-4.602604750425,-7.0495852936205505,4.192284257813499,5.803268488818313,-8.811944094332453
7.676976969044988,-20.10330019715753,11.878131573340816,-5.351928052894523,-4.281981560915717,2.760605550224593,-5.667565444252174,1.0539323631152033,-7.06950500583441,11.762168330152736,-4.339287650600427,-6.253495381407211,3.5196929495688405,-4.011566995649462,-7.736925412420597,2.0937903666595252,6.810962703394548,-9.716814806240624
11.419541549913813,-5.972693819991335,-7.839297231490149,-3.4262045395460676,-2.642144074103374,2.0864834375279475,-7.105943290884495,1.3965036113690203,0.048376210509398554,4.494628577470608,-4.392290150052898,-5.969368679065113,3.243811346266594,-2.1582552383314084,-6.858320358278475,-0.49233606576096367,3.419700833306462,-6.031555106271133
3.836457215871297,9.622591087050171,-16.425386956898056,-0.6226355078945502,-5.59130732503531,4.24455235173305,-5.2315537893668935,2.1296306416427244,4.7269573815271055,-1.1153123128714855,-3.664829737060902,-3.535789493491367,4.1360565257383834,-4.413623316060571,-6.269117383152494,2.0980060524351636,0.2195861683103626,-2.8342170220694918
4.557051177207784,-12.966383692061086,1.7452192839203065,-2.4099891475346666,-4.6332189241939625,3.7660052631783634,-7.954397989229809,2.081540640230596,5.69684046504897,-3.7002884203549486,-8.40689345566316,-2.6637609675253042,3.4621350418817673,-5.601585539278947,-6.164480961908027,1.5638604492775754,-1.6172970460650609,-5.886455155292687
5.085219212012405,1.5546047553300788,-21.10182994953902,0.0009971610867438585,-1.916319917975164,-2.571837183715811,-6.3873418532284845,3.7914544613476218,5.692593509488216,-16.053304968798106,-6.801785405014883,2.701488043186897,3.8589282111304453,-7.3820944971373486,-7.716151824509554,4.15527361693208,-5.313461057515997,-6.594234775054003
-6.590823884880841,-2.6745647291091403,-11.137161209987742,-0.5186248988128099,-8.573563263819493,4.957914220903198,-9.026325371774199,0.7164226381177121,4.226077784954301,-16.298868303158002,-9.396431206264797,0.5480470016485555,4.154664471408792,-7.801762924752987,-10.045057061630018,1.7666037383891648,-7.938978719444869,-11.793442636312337
17.38132898313279,-17.255219407217893,-14.064473360675276,-4.945365351859193,-4.292109471178049,4.284635522682815,-11.183489966830724,0.8644984658510482,4.031858534806613,-9.71033544502464,-10.233597478123787,-2.971654748308546,4.6424372824630185,-7.446301395303294,-11.783834018337547,4.26123268169091,-4.317793144448219,-12.30409473252436
19.676696315450876,-15.624346041176143,-15.625611269825464,-2.7321202660590878,-4.208878656115631,4.685836949962704,-11.491336644446484,-0.6470870068342656,3.840532108858598,-8.397104193693774,-7.262359578421487,-2.4864495983853887,5.517681217336261,-8.659256463732348,-10.295568426236292,1.7756783151869548,-4.313137757767813,-11.641711975559842
0.0024143218099439423,-0.6139103939687836,-10.253957200847232,-4.230541522485813,-3.5386119431816576,3.134153055224569,-11.414437365098406,-0.00956443686022812,7.558553440934449,-6.4018894434212035,-11.61558697172173,-4.637071821317155,4.436728393526984,-9.877861805148678,-11.244252992409088,4.856925714103584,-6.2646310295734065,-9.513162193502149
-0.33218608077412703,-6.208696606886738,-5.859660154722359,-7.780378432696024,-3.7461458843153537,3.6335752469283946,-14.565830936015558,-0.6408378587128922,2.3929021632575056,-13.002012625882223,-7.17963886824371,-2.3921719442461473,4.32942761973684,-12.078449132207918,-11.895313893305666,4.325095973650112,-11.832253027326963,-7.676124622665252
6.368124037618749,-39.43995187420153,20.31166259450886,-7.326781514624036,-3.4642426885834494,0.5199782109800396,-13.620885908363377,-2.833764259109431,2.0158036543357145,-16.57603791601558,-4.208463618495623,-1.3182488765594425,2.1685042165783766,-11.061486794311318,-13.420486092276938,2.9145540249226647,-13.886785691130395,-7.790619710586342
13.75569304703306,-5.774873036729587,-18.850562640092345,-7.752567740553527,-8.649995260140013,4.340421033511159,-14.731735690453815,-1.9006565438568215,9.25947221343511,-17.026142017531676,-9.049699330523259,-1.805941235761261,3.8135364553321303,-11.904925390509229,-15.331322214207468,2.480744688434277,-15.260098994659959,-10.540089542951865
8.646824743038103,3.7696373473213427,-19.04773771071996,-7.788116060371137,-5.2406600237763135,-0.23733881235076693,-16.335549019019325,1.084365017141888,9.37772689948399,-14.84044732943947,-12.230429634976351,3.273758384159704,3.991118767986955,-13.92490586286284,-13.623695548113503,2.8282998049742356,-12.436308398550839,-11.725088328167136
1.7839664354394849,2.377485928435677,-4.01056071029978,-6.847409260415796,-6.3223454775063574,5.82998018634898,-19.11561953788778,-0.4216540197333831,5.984039811773172,-9.82347138948944,-7.500443075851095,4.643357046684645,2.8966775101187054,-12.43359889623429,-13.961595034029962,3.46887757135653,-12.055932993214194,-11.638425542791275
25.296607651457453,-18.056807580901783,-3.426850881666917,-5.028034014243909,-2.4222225286704333,3.010851686349218,-17.79811571416211,0.5150992848413543,1.422330233065753,0.9546856002342636,-8.629364479869908,5.037263821170567,3.0694232164698403,-12.70426183810746,-12.63386600711993,5.574317357105256,-9.626508210852384,-7.83849325554208
15.219018697562566,-11.243361868012066,5.164806680176101,-1.7439725730167766,-2.9154063808608788,4.684407258104667,-19.121105115223635,3.894737533754646,7.021027256721693,-1.353752072806671,-5.5583297016217195,7.287545454370468,3.728201613670267,-13.174107477441215,-10.32395163148216,6.31249079101772,-9.73773809929377,-3.8408050962320957
18.81763292569227,-20.44444305524215,2.9166036286685024,-0.02254338528617872,-1.942405294591845,-0.08699934656846242,-19.177958791832474,2.9789884434733915,5.98312844780032,-1.9046393058243236,-7.076418133648923,4.265179105457423,2.724648364520096,-13.842869782161145,-10.645026875204715,3.5348733033163127,-9.752652786442738,-4.430424827815756
-0.8220913299752617,1.8993812639195369,-8.901773174073222,4.7262389643439455,-5.167341455310216,0.41558080206746495,-20.214482681349228,4.506347022827678,1.4338079063610452,-0.600149363578824,-6.445128248683944,2.5132254300668775,1.2307605368645946,-13.440729523519085,-13.108641300206376,4.858713975086626,-12.893745728851354,-4.626641811122701
22.121243830807497,-31.713110991670767,-0.8952070529805507,4.494511491411204,-6.242435670592959,2.6764886281712115,-21.644405618436046,2.0315124856839226,3.041305784476932,-3.7878660409953566,-8.156598470350392,2.910596004384473,2.8599768852139515,-13.725254933474767,-14.88255846712591,2.568996340203044,-11.152869259634876,-8.140283992818379
9.521524244688639,-10.14729841459166,-1.774936149855506,2.309735870259982,-2.823876824337285,3.47303772318082,-22.29550746600256,2.878924500545096,10.512770119794848,-6.780048253073707,-8.890347920239185,5.0666516039659335,6.049874063374386,-13.914910610994596,-13.81814596460373,2.9157604456003288,-13.709637043434764,-6.767934838949044
-0.24168340122274934,-3.8142985507468508,-4.11883427704689,1.8829779249375198,-3.212548278530006,-4.519083969331842,-19.921330526715145,3.4353549074127745,9.102000707130856,-14.65472875977597,-6.400130846266331,5.6610205947770815,2.206669505860595,-16.548522027583196,-14.21218216524214,4.336426819790988,-15.778605049198923,-6.6618655363653945
5.722514234873424,-15.253099669212066,2.0343263865015793,1.5541276869048843,-7.408426359613484,4.384127090526328,-20.869295933542936,-0.010083154144878925,0.37163716134744273,-8.27082067402499,-1.1741182823978358,3.131170434085993,0.9009183284569708,-15.082742629908086,-13.818376877894075,4.096522822560844,-14.429825532483497,-8.700829330293967
-2.762056107463664,-16.826448543243238,11.508824241367051,0.6396524509982511,0.8973542586576126,-5.462386943521826,-20.939786703974065,1.0389399857404964,-3.5686478303157303,-8.624568291157827,1.9049202900980173,2.848267872974918,2.6210037749477046,-16.353334175186404,-14.980353817324207,4.246804814455902,-12.006868023071286,-9.173665812331462
-9.093513393980263,10.02073792397961,-8.996491259683294,0.7998050847593046,-2.1236733201643343,0.3169151745220615,-20.425439847416957,-1.425405099893534,4.410270731392147,-10.149310654097345,-3.8036241536081876,2.273202431327932,3.070077729331755,-15.67244310255904,-15.061192167528354,4.005954447793822,-12.90411398623111,-8.86147086202974
15.439579924539714,-25.044837814779736,3.0194725359583163,3.694838212816286,-2.506431660289799,3.167078939680317,-22.157991692986005,-0.0786836756149123,-3.328640662292149,-3.762708308264207,0.9389401967859854,3.2614616322423577,1.7599417946591798,-14.4069938682869,-14.84199233373641,5.9130163181448605,-12.140801315348316,-6.396870427901018
-4.554492883435946,6.592179601086311,-11.135447195995221,4.148962355178376,2.9718040808745663,-0.8181897364937476,-22.62142367199169,-0.877914730251061,1.8284397037564704,-3.234333223155064,-5.547288349152891,2.0043837453206503,3.6712288225057734,-14.802828832019843,-13.931962259141347,3.717838210784796,-9.52139674380873,-8.61574109443129
3.5816821779330574,-3.4681903641988097,-4.097107541886734,1.9669324324585804,2.1038345493169537,1.642576709079878,-22.01070969200805,-0.9909217315342609,-0.9194861391828395,-6.122572822521913,-0.9962288830944965,6.021604549039241,4.995372800366676,-14.320559445736752,-13.20986103484598,3.2798275150620704,-6.998836955687343,-9.756111546612994
-5.367376596281252,6.786827619304034,-3.6978256367926603,0.0785506522217716,2.116349347164066,-0.7789052969126318,-19.348929274433125,-0.9058924294724315,-2.0018622277273863,-6.274820809162821,1.7014125080197093,4.375446567254544,4.755879876488251,-15.498998128043402,-15.40994545034925,7.235686048241948,-10.139394784721405,-10.306106532639314
-2.7879027488848998,-8.248821526038101,3.343989750870069,-1.418455689910258,-0.40865700673101557,-0.9536070712737414,-18.346732112082556,-4.626694362954251,-3.3717492635241193,-7.597218612637513,-1.848847497940965,3.7066251600698203,2.2692270653399067,-17.26361951532511,-15.649169312849143,6.307871209784612,-12.985729591867122,-10.65619387265064
4.2887916140732045,-12.051034293834826,2.9657622910898063,-4.184199118769888,2.8297373387123006,-1.0299858819871899,-20.17566545280038,-2.289797141628341,0.14680367551488693,-7.257524174718842,-5.2991415174041,3.429182509095021,3.3949575664609553,-15.610164769517237,-14.12268978119722,5.672185846541897,-9.971131663398737,-11.392157798978436
5.999316479992439,3.1929162501985413,-13.426251312493843,-2.261488976314291,3.042348149894547,2.995937985429316,-19.56186465220118,-3.367904120136755,2.987392611727125,-8.185302777889055,-3.5711535807357806,2.273556188207479,3.4455761909805593,-14.444650863716515,-12.588188840003726,6.695780875717817,-10.275210114672223,-9.388789472632684
3.124972038863765,6.427975394478679,-12.33530886217709,-0.630802098310439,5.600361877385874,-1.3760144926529945,-17.481559554286363,-3.5639785186491793,4.954785712276614,-4.32560837662681,-6.7235183149667765,2.681177452097081,5.155573498763276,-15.719938961822647,-12.803349579722866,6.546524354571993,-10.87035671749432,-6.5990837201252965
4.845620630497558,-8.595846748085188,-8.605250127117786,0.9032442577980255,7.964686309480847,-2.817534409002351,-17.840711493500486,-5.417026620448057,3.802934960327094,-9.350359292060373,-6.357558419802258,0.45275076455162244,5.790604052440759,-14.748163028970266,-14.475043779128855,5.32201654218097,-13.31887731207291,-9.565950459320433
6.669037444399997,-4.6708469741518215,-15.224418505877612,4.977475637829979,0.1742391986318026,-0.059060762084726104,-16.04905786939178,-1.2119932766582595,6.367958453087337,-10.661542701953586,-7.063077077156833,3.107908928145388,4.960105581753102,-15.630652913920587,-12.32959982949466,5.854274452152121,-12.737667281780856,-7.937511997471043
9.083538858568208,-4.941806858360374,-9.145452073979872,4.75591604266843,4.202017464168529,2.407160101568623,-14.25471978314592,-5.011500701620156,6.888122014032714,-4.352685707406496,-4.3477087658389255,1.564468428029154,6.570453740585943,-13.679541267835914,-10.663806146520113,5.1158507547344225,-7.954616640540731,-7.9637080293139615
8.378154839896737,-0.033481982659732346,-10.778684155586365,6.195752629004482,9.696304108722359,-0.6923807741955756,-16.65663068954954,-1.190219450338743,7.121333585624869,-5.169944925715149,-0.45747325143453654,2.2678259220982686,7.984952906975584,-13.09381465647042,-8.696250283573555,4.9621852277005125,-6.391497155260894,-6.909967852973545
11.19363219979029,-21.09859166249856,12.20073061220105,5.586055427240469,8.356192675883568,1.5799918203182106,-16.12542618015877,0.8767970724066911,6.091080440108541,-4.030989630332447,2.849897095398255,2.971838671475528,7.348166650220158,-10.943444327657726,-5.743179295755615,4.026012361636909,-7.657462120376514,-1.2604606756638166
9.912684055860122,-1.7297744939784216,-3.7822643150139252,6.63788181668124,11.21700718474386,0.1421156605445817,-15.883462479777739,3.0451341716681637,8.680310238519125,-7.088097908196496,5.379192351127802,4.067122382013539,7.394569554416555,-12.794624786818972,-4.538863043604603,8.459712813180372,-8.138960264263645,0.0004515918392939966
10.785418970608049,3.6777045906810386,-5.797042690941718,4.175433874445256,10.27081018689242,0.755804308786884,-14.367866914047891,1.1155958255707255,4.635016829105719,-0.9620012732652459,7.716463028771264,1.4520361600942082,6.854666045917913,-11.51804434295095,-3.9112638235102546,6.348985527740448,-8.226408641140846,4.001932059168636
4.436703410332459,-6.829214777104699,5.961209795915261,6.987969521320615,14.209135590792892,-5.172817195616426,-14.215050194794507,2.2172823979269065,4.306973067928672,-7.723192468735908,12.107939650210753,1.864947700971837,7.486347644616234,-10.238454200056935,-5.52042057955328,5.311077733298446,-8.798514109369746,2.8338496148173054
3.9526803822342256,1.027426626920997,-3.56650717612728,5.016801789730219,7.016106778712952,4.133932639020685,-13.27619452319863,0.8814442724318541,5.35244136270432,-10.476727586334336,9.569210960096484,1.985476886201841,8.020113038218344,-10.2251088413133,-4.580963733720842,5.541248703778889,-7.6089370713514795,2.355812129885974
6.110646584074646,3.7122037578068667,-5.278060165653174,4.0237965288828565,9.78578605281203,0.8436025746356841,-13.797081362027354,-0.8410237101420739,4.158129201501545,-7.366956469366091,7.327048818799232,4.45036515408513,7.870062172007751,-10.403477492241752,-4.9990650518774675,3.523763927386657,-8.173145952989646,0.8101212308781589
8.46915691471361,3.1783595312625206,-3.8608954321673155,4.790273712256221,8.260131392645151,0.3861195070218528,-10.11321638040177,-1.1922014941658174,4.435070218516767,-6.011031632509475,5.088577264602699,9.06427887536218,7.524527175522975,-8.624794908737329,-4.821434508567558,3.262535266878934,-6.877595633985018,-0.5335341614295048
9.856313162314972,-4.2850143891824795,0.09916413261330614,5.558450899260463,9.763458898812694,-6.125367718645418,-8.572008647315812,-0.4649831626269769,5.011406611304735,-6.701777067319294,9.10398701159528,3.8152972493312514,7.764810409251176,-9.283365276366979,-4.243255124954931,0.36290936229356285,-5.089287355422083,-0.698441132557106
5.877507946874356,1.8302907820261245,8.06710635606686,3.203336076156538,4.237004422245322,3.1844771221929156,-6.341041229375722,-0.31947278716651883,6.863746366380115,-1.1381377314601295,10.877148019045961,2.3754845070622936,6.051848048986079,-4.859249494726451,0.34893903205834054,-0.7805700584228576,-1.7337806012038794,5.100762175885457
2.685166070335944,11.074977665988698,13.695297924495563,6.9048112357830735,15.216263863273552,-2.934821154234075,-5.763759201391215,3.0530573505136154,5.499859465047485,6.87137942944487,14.900407612187413,7.088606389826585,8.245138873644038,-4.72729869096248,4.463018404408867,1.5898822710713922,-0.2288927812707522,9.930505748660922
11.021622360300452,2.257394820348784,17.37448755811128,7.678417415574116,11.15776507401435,0.22414658637652263,-4.984326805116806,6.918264690406316,5.31436562163001,5.9986191550793375,14.923759551801304,12.095177825725843,9.364169430678608,-5.859832352365685,5.0717163274688595,4.739796139899411,-1.1603688555373046,13.888573668567794
-0.07064716215019473,10.925035068131336,16.663347373295316,9.821146984779398,8.077352694806915,3.7745260801521705,-3.1234878902180885,5.3190995279991,6.3072815636449775,2.298501492494572,14.267653908885386,14.465445298931662,7.6511285904785415,-3.0807012165935426,5.4955158880198915,3.9815471508369265,-3.746747570922984,12.385175165920751
5.248724006756776,1.3352380697074944,16.737850975955265,9.817371738365708,12.322752385604709,-4.00261220021927,0.014407091289458052,4.603385666088963,6.1348335150478785,8.27135478784608,7.560999587334958,11.171996900456023,9.84442548999748,-3.3233175087531217,5.246244801452596,1.1705801600695516,-1.5424210305639712,9.326739405360867
11.15915406117848,5.910443136440214,8.32062409192053,6.202274616628919,9.245272924990719,2.967346843301636,0.32806448409349187,5.161822979558442,9.484600191174994,12.784331611961031,4.667310589550062,4.656253513380757,10.963537301986417,-0.4349581633871722,6.667801593829607,0.5061264995190369,4.183254771488558,6.080590720636166
3.402581258604613,-2.107504013748917,21.588017028805677,7.667442104184206,13.20056911871115,-1.0972425222657916,3.1889885727640106,2.599880268914304,12.645589799807935,10.759361652210236,3.3405387117198106,3.8050462140053245,11.887402439925994,4.412767307905186,4.682092741075962,-3.0900670507788943,5.1295639952636725,4.795311652192188
6.1980896908695176,13.121850594450528,5.8557687334469515,6.986247582201832,9.930575077503931,2.651560387420113,4.300564297953709,5.023215237812002,19.52410936863222,7.17711894959049,5.143285122550181,0.3174431600927159,13.006667431073817,3.2122053381210183,8.566708574940822,-2.8796663434403067,5.886609807238391,5.6663260981733785
8.412657739098623,15.85583414154356,1.4566293478547012,5.623601814426275,9.982288035188548,4.447977561121856,7.081134784748722,3.6426946851765445,19.182484460210095,7.213590038177502,4.899764365704884,0.0528841787265355,14.223686900904376,3.5809383577699387,12.950574318067915,-5.60110451049991,1.7670072333737266,10.842208796460525
8.776691759353081,4.72729496372159,4.777363251526135,6.60693788963667,14.820532485038143,-0.9815138094320432,7.820024625813179,3.2436094033404874,9.765205455834945,8.036823669050339,6.90698916135181,0.17926957789534637,11.436844915149468,2.4918525189480603,15.197027686567393,-4.223072415897423,4.392210940925087,9.580708701465872
9.145642015889516,5.12729872370513,7.028871812715144,7.690169386005189,14.581832123593129,-0.257809017561041,10.912147128326232,3.7283612674786255,18.71407971755391,4.178106415397815,6.96574616017027,-0.8659503549129184,12.556424352372607,5.7070278050763825,16.673369371688455,-5.972290027291639,5.070862552744445,11.647695991104788
15.281264606801583,-6.088989332581717,9.773773987947106,11.119464360515973,14.344341917621652,4.763588322424076,9.912402513748264,4.706376998648914,20.24744112766944,-0.2608199110335354,10.056646849254864,0.042245556685429175,15.140984404787627,5.6094308422483685,19.625815217873757,-6.649520712456796,5.658636398422765,15.090107702387316
-6.3130996708941005,26.059784489443416,5.687831433275598,7.4220604630046605,15.865850670629861,2.0707687549846883,9.313353757280979,10.572310628371486,18.85751786782969,7.8062951996564625,11.19921042711173,-5.006446779875868,13.526375603829784,10.304921284354668,20.929400719592945,-6.938413796499067,11.624539832639348,19.12676931347647
11.062727605450068,0.4979013865863964,27.193503013529945,6.656741759430707,15.142337494973603,4.749861166359713,10.677827278686387,7.849447764769963,13.079410791588542,19.980995933712073,14.78809629510778,-2.437629255519613,13.962689539994217,10.320962250614457,24.197540668009356,-10.061718753815729,13.8865734387463,22.19523982740784
6.567912490366421,16.640979212786775,16.477492599629947,9.018858930773622,15.20113574887257,4.49994847187409,13.615490136375788,7.963795753068753,13.557775318059214,14.095081527448595,18.479576880657625,2.5728095072822827,15.570999537068314,10.638358917517026,26.012287665063138,-10.941276009443246,11.17535339163974,24.19793968516393
7.1559256878142,16.67567026044317,13.481898760845707,8.551323380818653,16.335159004660817,4.446068296726813,14.122668240019014,6.325490538725642,16.972204786554002,9.0942561300243,16.31658527040482,3.4817719028289122,15.616878624024192,12.624576421437128,24.811186354452232,-11.82325531976581,12.47555483449095,22.302867833640956
14.682194963334519,8.609939650006085,12.542652169454119,11.699577846810639,16.98182069553624,4.783525170576699,17.082536885780932,7.133862645771397,21.174180153275806,9.080243611324049,13.670349403347346,3.6095914615478524,16.73707231286426,14.815001610272203,24.402951950088973,-9.97328047554327,16.127155364852193,21.002348858506068
11.763569566701545,21.545820261606274,8.77694209884163,8.307247564343157,18.215290150884258,7.270146569887901,15.952310607732938,7.459225518912152,20.01120974255219,16.885213351565106,12.88470422575112,0.6124521715133355,17.173724595616374,16.916910222156595,25.17827351243176,-10.371935482769105,18.51697378560229,20.78473503152356
15.490077324690825,11.830324379853,20.837469811240183,2.866617099905344,17.008108519194614,2.6284344370175194,18.349570897705735,10.036039468052667,23.05369273723909,16.884017889812277,11.908883287940181,-0.8221052994135407,17.21978880784539,16.78207677699607,24.012156102619656,-9.991868365470708,18.277952812522923,19.696930061064343
