Fp1||F7,F7||T7,T7||P7,P7||O1,Fp2||F8,F8||T8,T8||P8,P8||O2,Fp1||F3,F3||C3,C3||P3,P3||O1,Fp2||F4,F4||C4,C4||P4,P4||O2,Fz||Cz,Cz||Pz
-1.1552545259786662,6.482586496692431,1.5357241242428508,-1.9290119462057715,-0.0788536037180112,-1.7647270217612814,1.5722107933129728,4.75039850263987,-2.5654523334628507,18.575493649713394,-2.926492431562778,-8.149504735837304,-4.698193329954442,5.085096732418794,0.054405130810199154,4.037720137296914,13.024578874730366,9.262602120991613
-35.19074649189928,15.281812106554671,5.367043342264527,-9.47393507963113,18.40385368533068,-55.431781615809754,-27.73035612363939,17.925508567190256,-5.389066541953447,-2.289127887506133,-2.4640063398146417,-13.873625353338454,-22.434673772298943,-26.086047188067482,-4.09959520550272,5.787540679042573,5.629210888617276,2.682862432320479
-12.685322742403645,9.720519078777311,-6.130241772378476,-7.153826885412782,25.071015049571344,-42.1074025769788,-19.729790476403174,2.585832990004044,-0.7847896170923789,-5.580637282586567,-3.6656282865991727,-6.217817135042139,-9.30959722570165,-20.440163365098712,-5.717327642607483,1.2867432197067252,3.799981658407173,14.556929916257124
-12.058244541852808,5.2284237895046,-6.295742361339769,-8.933659407258972,32.22757654813011,-52.90648157536694,-26.380172286363155,6.193037914276125,-2.619787556683505,0.9859238507366186,-7.019885066115176,-13.405473748788879,-6.925107434357827,-22.60687704496761,-15.346015415091731,4.011960495202791,5.974558278116174,13.34125481039597
-7.7232788558315235,0.633428330200072,-10.16892709761661,-3.4850495069277994,29.619545864102598,-54.91857920337412,-19.849207370211822,7.164765753715061,-4.546076724898477,4.812627246236054,-5.495656324941869,-15.514721326476966,-0.04654373465772377,-29.070547883757186,-10.231591644277977,1.365208307038193,12.34844609232858,16.418815433158155
-6.809534437238705,-0.060703234398221895,-5.054468849947234,-6.628465356172836,27.30574014130685,-61.03473480889612,-21.719417375101216,16.34102714901948,6.522707759416065,11.075253777508184,-9.054267126976754,-27.096866287611334,2.634607794247481,-34.85066966439754,-10.19876324759079,3.307440224187701,22.335887266280764,14.12139643476549
-6.778002500472509,-2.2253479387627557,-9.409861890951905,-3.9104752739805937,21.770550077912862,-61.09875944034442,-21.443926599054244,15.948113334992891,11.934162158486902,13.035340536177843,-11.738829317961102,-35.55436098077978,7.075521628212202,-29.302587406792384,-18.665735718385406,-3.93122112940517,29.979946814985183,12.113048099425432
-21.105542274484655,-6.056020427188944,-10.149152634008821,-5.19442450438931,12.916386638560478,-65.85321866416987,-26.054251562848798,20.34171046296793,6.122016589928034,16.64993142845608,-18.237146636155018,-47.03994122221083,7.807416123620995,-33.422754043113564,-25.67160289656016,-7.362432309310929,34.01125965630546,8.538175237874121
-29.870064391087553,-10.088051390200015,-13.034333452677412,-2.765264738272696,7.384044152568583,-66.80210113574854,-28.616850791213785,18.291175137714234,6.469566532259218,17.329035105731283,-24.838455180283454,-54.71786042985647,0.04511323773274167,-24.847585940086724,-30.044653809525826,-14.89660612466854,41.85199778009345,6.424070272994067
-28.286427635337002,-7.973881932039543,-19.921089138105415,-1.896426819193647,4.001696971169312,-64.33624754090692,-34.01476806064535,19.562276426222564,16.297389065322967,20.150777259789262,-32.0312716854279,-62.49472016427349,-7.81277078945144,-19.592991350892678,-31.687411034784752,-15.693869028895719,46.17801244453323,4.794058977680243
-22.702471505353735,-8.600557832587445,-20.848519860003762,-0.8299840582167057,7.65229850829318,-53.18234711075838,-33.458962079998344,14.096260446169996,20.566402059102565,29.216707037604845,-33.27275320913232,-69.49188914365214,-9.125459731578172,-10.627651829815377,-31.674288278870947,-13.465350395888443,50.407504189676374,7.652012660120406
-24.15360527395591,-9.038535323869574,-24.703671485623588,4.340460715213647,5.054461629285828,-41.543854498375225,-28.609768167943713,9.80339577016036,20.351046200015354,32.71016289410957,-34.1296140060373,-72.4869464562404,-10.728946247816356,-2.5415199488861235,-30.200777679397845,-11.824521390626973,56.689120646543635,9.724318197636366
-15.45214947829237,-16.70998789842834,-21.427990065312166,4.239852167068413,10.173307760151191,-37.72187920230634,-19.369680605539195,14.008002773563433,31.76504960985322,36.00224659821866,-41.340458446168,-75.77711303678774,-3.150381196763294,7.595097798014063,-26.583449656650256,-10.771516218581056,63.75348611031428,9.350699830624116
-9.489006704440403,-16.966436382157653,-21.95933747312658,9.512971801929817,18.321328968417255,-41.52130426846857,-19.215617714590625,21.436551574929638,45.53112319300772,32.647474516512254,-44.26081020962562,-72.81959625761067,7.555503020445633,7.672603049457974,-25.412390400596085,-10.794757108864534,67.20617462821367,9.167823440787604
-1.9673152863883514,-15.862838916576784,-26.88385675093142,10.394133502010547,22.662545994550452,-41.614027150544246,-25.80394195835875,26.424879533946918,56.668913408949855,30.84902530261173,-47.09016636145004,-74.74764980192128,19.240282688625445,3.257448548721504,-30.88705280752216,-9.941222010070213,63.14104626452927,5.562260715267058
-9.098336929237053,-23.262801719340917,-20.088218933014694,8.54360677013636,20.071972610831494,-41.90654940076444,-23.802534293271016,19.793143551115826,60.29571922391868,20.938712549867766,-47.97324079970732,-77.1669417854615,21.94291390261246,0.5996913859208011,-37.53877103772242,-10.847801782733857,52.73016078038666,2.4402306072453257
-3.830952330442963,-21.392786567657218,-24.424534863927025,7.086527194990323,13.284085858475944,-34.78175573406388,-19.46163407064975,17.264222436530734,72.52524828791057,19.615941200113326,-53.35565190323995,-81.3472841517493,24.64795330766852,-2.546834547746399,-35.79725158058875,-9.998948688870318,45.153509744829826,-5.5695318652607355
-5.989755261482557,-26.464144638081194,-20.06848438617308,0.2611759576824013,5.228677077678017,-35.18146520761298,-11.414174632665178,12.978632596793075,77.7324370587391,10.767117151510188,-57.964085660739926,-82.79667687749475,25.98823600350076,-8.7212683603314,-35.72140399237206,-9.933893816429569,36.3096291044764,-8.115394040120194
-5.711384233801235,-28.22297517728017,-17.86027913326661,-4.803344154318509,5.4762627186252715,-36.17215933731441,-8.351834179609078,18.948255048528615,83.04646961221995,7.868943344329061,-61.21279588248703,-86.30059977266203,30.84669131807534,-9.622739755250954,-33.69805140029186,-7.625375912122605,30.20264420544946,-12.717088114945565
-10.027264481115191,-33.212504205352715,-12.721920437032024,-3.419373984947248,14.026899443183423,-38.24230402732633,-20.040523583229373,19.547828515028655,81.63146717799168,-1.9694651977009485,-59.58630034957849,-79.45676473909555,33.36389597896935,-10.622461778814902,-39.00483571951189,-8.444698132801953,23.219373572414696,-13.905865160139662
-20.20701218463223,-34.49918490026738,-9.536500422273027,-6.91512392455383,12.618645219420484,-33.67711104365664,-31.24576967906385,24.25012910630347,78.37047364072114,-9.177711154442402,-60.60443754625091,-79.74614637169313,25.434297466875073,-10.157947625055256,-37.67685370877095,-5.653602529856497,16.922492816337197,-17.443614572022643
-21.504371697715378,-38.43091822973777,-5.374493263056351,-12.263116762928618,7.9899381719838,-27.7502675279798,-30.63940626035847,16.45331449532863,76.29102952289017,-18.34576731668781,-57.333696389007116,-78.18446577057512,14.968211389287756,-11.354281688319434,-27.07749689440979,-10.482853927390812,10.726204080237617,-17.275637301277015
-14.114719111782438,-32.89828724692195,-2.7752078060397976,-17.99839936926312,-3.2771898968312403,-8.93832516660322,-16.756696143738754,15.298273439212835,81.54571661149933,-16.2898954163661,-55.92669886419353,-77.11573586489183,6.94621986740234,3.073919674195468,-17.46097533525452,-6.233101974105482,10.880748093294818,-16.234086666686633
-7.41325553344434,-25.22576011258537,2.558087720518308,-21.679441487683658,-6.045737933167705,-0.6793023821094835,-4.8323729014335175,10.335597643857945,79.48601152102958,-16.584575487334796,-45.64127373667953,-69.02053171015844,6.934850160051174,7.344977072004168,-12.050138564125048,-3.4515042405803036,11.429144808997863,-14.709670406794537
1.9203267576694962,-18.050228136526233,9.453290481522929,-27.89607047052305,3.1023648996544764,-6.000745597694863,-7.171435020985053,16.116258523018622,76.65511386738942,-11.124266616930633,-39.856707351877745,-60.2468212663895,11.516116112683967,6.9276883456104015,-14.458463774110543,2.0611021200166153,17.059104565897158,-15.632195338339239
8.2218260463259,-16.742993890607615,14.394510751413259,-29.323869737060324,17.917071738668838,-14.941717413855548,-11.469127525901314,23.75336811426173,68.46323421343808,-9.08884512515429,-32.909022449544146,-49.91589346862375,23.326810123890205,7.583824961022204,-18.533650784314368,2.882610612787347,20.348774606233867,-11.677403312932999
19.792100161159595,-15.15174101660284,13.2799112693085,-37.584024707919966,25.702923420699342,-17.05298727415541,-17.237278981513267,27.582742165024083,62.234820690227366,-8.622859791344158,-28.802353729959542,-44.47336146293757,26.937041318626243,13.903265927150109,-21.639074642521987,-0.20583327298358745,21.68891803823147,-13.197084814979366
21.494152048615813,-11.811718961902764,12.261716428818678,-35.000399232813436,30.561590611672557,-26.690386091111105,-17.932934985816118,29.75281395117376,55.72385613114328,-9.335722461573372,-24.411816524169094,-35.03256686264571,28.596935775431877,5.182536002557784,-17.524770542354794,-0.5636177494954977,15.806145674450937,-14.331843054828418
8.640365650205078,-7.406641612302915,22.960983048157505,-35.24499227981116,16.574905753785476,-35.357828991270594,-9.649896980671082,31.142464480974475,46.196027884514166,-9.176660236081231,-24.620456497106627,-23.449196345045113,26.939314479885766,-9.30091336307322,-12.636276377579579,-2.2924804761902613,6.118603813712639,-13.81219254266062
-5.58550579482521,-6.331211013755505,33.658567069162736,-31.67699347227247,3.8604058893605897,-43.44608079747509,-2.0563890892539174,36.73219824535732,39.99918634045668,-13.809858396531652,-20.053284883988688,-16.071186271598354,21.18294349676968,-18.1211599441311,-7.0713733700946015,-0.900275934326612,-0.34222826076626234,-9.978014268640187
-12.0036734855308,-9.464444484150032,40.54560044555995,-27.030736169000804,-4.749793466125153,-38.84571088144508,-0.4260338753083541,37.14683038077587,39.28189227721342,-13.95786456983193,-23.601273296008856,-9.676008104470256,25.683537257008602,-17.860215688789424,-10.59595541133209,-4.102073998757437,2.0879169598850673,-10.349014166649294
-20.96589368476355,-7.235974947537432,43.03591966535392,-20.817849071599706,-4.76339674488211,-33.56874566616895,-8.17695353367249,43.81227317538675,38.96602693258092,-13.331702286231938,-24.717531334346848,-6.900591350529332,34.48399889918885,-13.791630876655075,-16.276439186300145,-7.112751605334259,11.455999831449622,-11.897859539125374
-28.761205055391045,-14.9781527502676,43.27777710606775,-19.386003550736852,-3.407038732138769,-34.64666202302436,-15.348156502113259,39.63837736286645,36.21959282250257,-20.622936169017944,-25.74598592585284,-9.698254977944657,33.22866458406243,-10.017062344213123,-23.42933307026801,-13.545749063751398,12.332209139508715,-13.159738769704438
-38.710000476932706,-20.09320813364685,37.46230222654843,-18.438178259087987,-12.69258502262976,-36.90371446825728,-18.32640091878496,37.90654949842974,29.968425074211495,-28.99554638951927,-26.491458390249015,-14.260504937552305,21.13629504936532,-14.935106915357347,-24.242126696599207,-11.975212348407634,11.845668203082589,-14.427676741410082
-43.487976031614146,-28.245362209810835,33.499552605153085,-13.775010649413375,-10.74466693286007,-37.117307457825426,-16.330515928513616,30.51114976619282,23.044661751325226,-36.203423023595136,-25.684530556701795,-13.16550445670861,15.199358465750684,-12.725241266722636,-22.914207994443306,-13.241249757344228,10.28945508705076,-15.115775793429918
-47.392095713558355,-27.813409444685817,30.51038859245734,-10.279309174442059,-11.332992488693087,-36.752412093805845,-13.462214179799693,30.538266769185515,20.03827362032137,-33.94567226915143,-25.66911631052202,-15.397910780877076,9.36309509477274,-13.446242607688575,-16.22297287602326,-10.703231603923985,7.761328928126382,-13.075611483518706
-42.31678732009293,-32.17651903606816,32.20558380040239,-5.509553054368201,-7.230857155499187,-34.930208824809846,-8.354371327535395,20.604773093273344,22.707150420047988,-36.577991945652144,-23.027318565510125,-10.89911551901826,12.905009204440162,-13.094172955207243,-16.27807866869844,-13.44342179485253,10.413825302680623,-15.338583949682334
-42.42244017556804,-34.303385652504105,32.627795139721684,-0.8328747664996214,-2.4421980968721506,-34.67818281325298,-16.729963965832617,19.46090418627882,24.99655617624268,-36.38542641625247,-21.37259325340691,-12.169441961444548,10.492853397107432,-18.79807608415765,-17.41547019217024,-8.668747810202657,8.188291476262165,-22.19770621709702
-42.9238387768262,-38.393337148022624,27.186887560461756,0.9187256021066048,5.572114515750634,-48.398957389468436,-20.424729239318083,9.625873025560292,10.207054804105724,-36.59068266804711,-16.01748415872783,-10.810450739628052,9.841605844796321,-29.972033678145912,-24.615782127302584,-8.879489126565069,2.354369125985894,-25.742738048917264
-41.770181097638726,-44.25109605662718,27.503910664820808,1.0148714253217896,10.366696804803777,-51.18989427977484,-27.153701774916787,9.849913416471598,-6.036084159379925,-34.4593411891756,-9.012914941741787,-7.994154773848592,1.9667701027322515,-32.651016402636166,-21.374942502817287,-6.067797030434442,-9.138666675267096,-27.829210088553964
-43.84436141767566,-47.87272595754031,23.519895651662374,5.412755861030901,1.8828268777228478,-37.28926742986932,-21.29171262225456,2.847552408857023,-25.29535973095176,-31.944549572956472,1.594162230951362,-7.1386887895943545,-15.768398165721429,-22.831083803879924,-9.54853066849649,-5.702588127183599,-16.42729999099472,-18.691378730569554
-44.458812251370574,-44.18004813203413,17.090118048913876,16.26091834139473,-8.551173713407126,-28.865459649875373,-8.991265172523088,2.8767665951438666,-36.92605962281634,-26.214221661157936,12.971570024942046,-5.119112734098458,-29.984774861970656,-17.30939347559806,5.394541465003982,-1.6315050678327916,-25.370914474248423,-6.727836829422157
-45.76200471296111,-43.13416862859978,24.327883607228102,22.914732363187323,-11.560139880136873,-23.184125241160384,-4.901082478872169,0.8553322761522324,-43.95556130449397,-25.764564611012457,25.412182838752983,2.6543857055671722,-40.09640074046972,-12.570292477556013,13.200136540234688,0.6765413540393315,-30.500599344814532,7.182471985861319
-39.06239758257814,-44.34446577884083,25.79908096463432,22.73750402230334,-6.362789342122415,-12.920999995438024,-9.41185378725279,0.3965316973099391,-49.215932832851195,-26.298617031806863,37.841670707509365,2.802600782620189,-31.845233781611583,-9.883356573374444,11.23142474460936,2.198054183139849,-32.01159617256943,12.004202371896174
-39.49693509633556,-44.88120937036612,22.57772462659952,22.858311224319355,-8.779657334551871,-7.158315381418724,-13.05083282868072,-3.2849186957456986,-57.49240307227687,-25.4725677029439,41.76371936733621,2.2591427920480385,-37.360659333268416,0.41950590573230073,6.031407646932482,-1.3639784595262885,-31.17338509522792,13.01085487249674
-36.518572746104134,-50.40854299411036,8.413499171737056,25.71865803624029,-18.029464978694673,4.74856524497816,-18.35717159849352,-7.356998748574785,-64.9763257061602,-27.973958024098927,41.8658133830053,-1.7104881850437792,-53.61527705815916,11.209255832641233,10.393185989183927,-6.982234844183434,-29.74373838791847,15.768906560433997
-24.365492261942958,-52.52788831343365,-1.0685762966256895,29.85373650478797,-13.799387097554565,3.1703836248849626,-9.315047683269684,-10.843185265800003,-56.53076247041,-30.287074522240694,37.56192322732562,1.1476933980433444,-66.74167819988153,18.67721772260829,19.43381335055976,-2.1565892947585263,-22.644389969788534,17.543929931782902
-17.588682361507217,-55.82913907412447,1.650925780810132,24.423593111068843,5.6684291077696045,-5.349839669326386,-8.776415455524877,-16.282633468694847,-53.24980257063356,-27.919621596445147,39.49666333865348,-5.67054171540196,-58.28254093267932,17.159219475813327,19.090519539886607,-2.7076575685303528,-14.758166731429121,19.019521752013155
-14.527944012580402,-48.788654545364196,-2.4714713107280364,16.16666495690125,2.873423124011177,-6.065829486024228,-14.29987079837043,-15.667462292019046,-53.180314400121716,-23.31299844972944,37.415895597977986,-10.543987659979948,-49.722559856794554,7.2411847806651295,13.562535577702395,-4.240899953709587,-8.819428787081392,16.289368397390522
-17.429384981884034,-42.44172462830871,-8.455439011041122,9.184627469593575,-1.480954242042836,-8.54808362714708,-20.025984895193076,-20.81431144644442,-57.68953537216895,-19.1039150061467,33.85864966820056,-16.20712044161436,-40.671096494932996,-3.8502359510230137,4.9982837537322276,-11.346285518338915,-7.171908831342581,11.013650865866351
-23.167934606602014,-43.42903360257056,-13.859748645651887,11.19248968921181,-10.12911164663484,-4.495729175435223,-22.82974185969803,-22.641063663030394,-53.20307452108568,-15.780606139889986,23.160708863970193,-23.44125536870389,-34.05787626457824,-8.888391936232702,-1.0357889156495297,-16.11358922807483,-8.25303353188605,2.997056566610201
-33.11077563712514,-50.383323776569824,-13.606411042211313,5.100191810326756,-10.180221180666463,-13.538002687960805,-28.86360732978096,-28.47210131242707,-47.338276372510705,-28.08933201619562,12.25570880869498,-28.828419065672577,-33.00794082087094,-18.615656227695005,-8.055401412960325,-21.374934049047695,-17.238617244835936,-6.002568771382326
-36.906159467090035,-55.19894615499699,-16.58249219959021,-4.795283807431676,-13.450865074877985,-25.323210363775218,-30.022013102809826,-26.197915664501394,-37.45842864940964,-40.9907372909947,-0.02830346085323754,-35.005412227963525,-33.81029080321686,-30.10231793072219,-9.615179379057016,-21.466216092709246,-27.097260470259116,-14.910980037829507
-32.1126119997764,-57.387548295130415,-20.15144295965495,-15.661823905231966,-21.308249279251505,-31.15983592110001,-27.672188003209747,-31.248479790814223,-35.380170569095334,-47.06276559144247,-2.4607440464977195,-40.409746952878294,-47.207273230343766,-29.383341211047256,-9.914438269072157,-24.883700283655706,-29.235043572432282,-15.134282523787633
-26.542719516423663,-57.43734804420124,-27.34086112290232,-25.448580216922153,-25.256149935683432,-25.774379995401304,-32.458842421850875,-28.58455082348415,-41.78716497885024,-40.73885286147695,-10.178615002142678,-44.06487605810756,-56.792384253831486,-18.900190301924486,-15.300959948178544,-21.0803886722314,-25.214455645488584,-20.34454261940722
-29.180958955344202,-56.12952943693255,-29.850044519330776,-30.639841519923774,-25.685199519835294,-10.729381124532722,-39.40144460658615,-37.151778354283465,-41.83550011076691,-44.96849044150804,-12.146640116585303,-46.84974376280709,-57.096787873567024,-9.102263885400266,-18.059807818337024,-28.70894402768252,-20.308983718250285,-23.315066630467513
-25.96457847640446,-54.83121600667552,-30.511271100084347,-31.333236199752562,-21.716481906166788,2.5491942214251324,-41.85927753476982,-35.7584795831812,-27.2243389228001,-49.59519107170547,-17.642349197803313,-48.17842259075202,-55.83544403226247,-1.3567906063483903,-14.480008736327528,-25.112801427506742,-13.053734618889248,-27.26853532437903
-17.967773980653813,-51.491503542784045,-35.281864111334095,-30.849101371703636,-13.6429759158177,-3.6147120646660085,-32.8009895750635,-39.248676547547205,-11.332868898299091,-55.10715651475462,-19.341452280484873,-49.80876531308903,-52.617721347865306,-1.4255972539420174,-11.592937078714838,-23.67109842232812,-8.13625673794597,-30.056449993469066
-7.046001441110178,-48.356421676829314,-38.20489998448778,-32.605435284733474,-10.644516836949277,-12.6192876621107,-31.660473073574398,-35.6105114011167,-1.5831616722072042,-46.6603187295646,-25.447236114522184,-52.5220418710268,-52.52182308755313,-1.9843733215161325,-12.035365018981016,-23.993227545460236,-4.1893225798844185,-31.776436156711437
-1.9884146677010932,-45.71883864073636,-43.675172966431774,-34.942037189081205,3.1970970899089526,-17.3355174988356,-35.41033660033099,-37.14890218304798,2.02469297993703,-41.34468615973043,-29.90495340912964,-57.099516875195384,-36.797465232740215,-7.916025748428452,-15.709644111702715,-26.27452409919734,0.34960675661351726,-31.744853592148097
-1.9160496235068294,-45.141166829639246,-48.665486300536486,-32.48771580012034,2.393183580498948,-22.157996390055903,-30.866780270580634,-33.70748523578212,-0.11877024229184485,-41.308628538885436,-29.980216048836624,-56.80280372396499,-24.585568364847738,-15.41192257698037,-22.32280654094787,-22.01878083291067,3.0390986787895167,-37.7742816332136
-4.0944437779072125,-40.08021989748357,-46.437646246755676,-28.26984918459401,-1.2396851997968583,-21.227253085505666,-21.447816613998064,-34.7591011572808,5.2677984780027325,-40.985549743268734,-32.997379159460365,-50.16702868219807,-20.57370907897223,-19.29622351052442,-21.425475634010006,-17.378447832845737,4.172133094556565,-42.442688305022656
1.1445662374684744,-36.39533834522565,-43.632566510111744,-24.04626860300969,-17.662615479157495,-14.347962013787821,-12.133978671379314,-35.030270232389,14.570953237006888,-38.3245279995896,-30.655555454100263,-48.5204770043876,-23.3946857721642,-21.32678787489096,-19.756033111814016,-14.69731963761972,6.287813636831842,-45.45705281366618
10.96895419735106,-36.23486256648167,-41.32466656782337,-23.039675356473865,-15.52749180923168,-5.8170505064949936,-8.58940041753657,-32.95850528700247,25.05616102046587,-33.61842310434422,-30.767380787373497,-50.30060742237601,-15.763087032148274,-16.42543331142205,-18.388707912132137,-12.315219764343015,13.585421148231784,-44.96182667957366
16.29659950785669,-37.254871103862946,-40.393047300927044,-14.996006674573636,-23.05742268942173,4.853786405369924,0.31891863473648385,-35.28222545009484,28.617706241542905,-29.210903313059728,-29.71953145215911,-46.034597048039046,-23.558224569279297,-6.350019452751999,-8.924924344268124,-14.333774732895249,18.25232998825713,-42.9101094598642
16.736921304646074,-32.61918083477863,-40.05662482576747,-12.02482648087044,-25.506113484494794,6.140954575139517,2.286124405526621,-29.11064245701008,27.50158681315569,-26.46905551376976,-25.363545900603548,-43.632696235768954,-28.811086905438295,-0.9639986047197908,-2.7906241549080093,-13.623967295562135,19.409609548699805,-42.13391656838654
19.418985430134533,-37.17162152247579,-39.92494297969089,-4.360369249058304,-19.45557000895255,4.1969136290687885,5.2225179962682375,-32.60812777192602,19.26622208123558,-22.072391226875535,-20.82447663878118,-38.40730253689352,-22.244203726014575,-4.07604348936067,-0.18110519145707826,-16.142913748503965,23.50265514542706,-33.941646311869874
16.33490858315048,-29.524996115339476,-40.09583101290502,2.6261763418574198,-16.527092723973148,2.4397091637649453,3.0733465470354915,-28.68460703116267,15.630396591584203,-13.774653404976693,-18.348452633325124,-34.1670327567513,-19.873461865754198,-0.6468833517575714,-2.463554429354076,-16.71474439726976,29.066580491610942,-34.446759264649586
19.203671413983812,-27.452856343346312,-38.22567134483202,10.985605234807199,-6.857282001806605,5.263966758695808,7.264595467459337,-34.13724006605371,15.715039217154612,-12.318060867031534,-12.173664322150621,-26.71256506760018,-15.351128288417272,12.155534609774715,-1.922985288326874,-23.347380874541642,32.683339785563334,-29.09818192157012
24.99793612471835,-27.048730828077872,-28.74813761220534,17.592847371035607,6.33112178461386,13.353320337720739,3.831240422738535,-25.7235116292037,29.871711681883692,-12.917248319611556,-6.98767654620751,-23.172871760842376,-7.407675238111985,24.760729697179215,-1.8797321324126663,-17.681151410596915,35.524796244706344,-24.438909031305226
28.932525781154332,-28.898399663235068,-29.144126744022103,24.498687999776532,13.467622247893207,13.231033863537434,5.175849515206075,-25.41643855380082,33.099866448656584,-17.622888994171408,-5.0366069003869605,-15.051683180681067,0.14821958428520787,23.887226519693158,-1.9431315408062346,-15.634247490154088,34.27055222349688,-27.988509194675547
31.593439220986312,-24.505468764959808,-32.28478175918672,31.312463804644338,16.11470238652429,7.436242931468076,14.423508042732458,-23.645586029047745,34.57915763706313,-16.864381909448152,-3.0977358412104117,-8.50138738518497,12.785360642166133,14.515546462290395,-3.578013528016548,-9.394026244587028,27.74867550059605,-28.6139191701756
28.586130482447196,-22.268328984447393,-30.064664872652994,31.88169959994507,15.053580204189572,-4.4216469245378605,20.050642701521696,-25.977467417197026,26.789758355673417,-14.059602538265022,0.0008472686147023012,-4.596166861003638,16.14802782098475,4.946573385461944,-9.030466435060237,-7.359026207240689,25.431922635867437,-27.682263057805557
28.309217398952413,-23.06572131471541,-27.464472074717428,34.11662944508147,17.999170099216677,-3.689968805737351,11.998548621355976,-21.669751965169503,23.598879307381928,-7.548221036998758,1.5247470425249432,-5.679751858587309,20.783221231331936,-1.5970120817121334,-9.315934925780871,-5.232276274010406,22.242041986420922,-25.29111102502833
32.81356442763337,-23.96773126286987,-26.632821494291118,40.45864848926344,4.638611816407518,4.6507730068408435,4.915931433621406,-19.023366776553942,27.93605676131339,-3.677839582592476,1.9622770445889337,-3.54883406386201,13.800079661657367,1.3301753182441551,-16.348616527030245,-3.5996889723995444,18.276637192844603,-21.7333455003897
28.1341662778105,-21.067863566327034,-24.15183668736001,42.411479403282165,-3.934076389538394,3.2175430647927747,9.154558368020766,-18.819591540732116,35.60180438239257,-7.038218519792764,0.7275191675843509,-3.9651596030741985,11.995691038389001,-3.069022156832249,-16.749350579203107,-2.5588847996616515,12.852045014459655,-22.96599471866692
28.431446362478297,-24.61999217159213,-19.240396827103588,47.59236628531973,4.3906082615718995,-8.087272349024488,16.022939412214562,-16.17555564721072,49.03735456121446,-12.062710872346948,-2.667783541019311,-2.143436499049173,25.428755182271225,-6.884354890464309,-16.27989003804703,-6.1137905760667515,11.046403907095788,-22.738866378321887
23.15841929839397,-26.908963990872394,-8.773591980879413,48.481597712449556,4.612223844187178,-7.095320576949241,14.192827578014523,-13.044428979453095,53.30085431697201,-13.86827166319448,-1.3875541642892806,-2.0875674507073256,25.778475835113866,-4.354044495773277,-16.209728402728565,-6.549401070677977,5.8282875700624075,-23.102673178693493
15.049551741572394,-32.622156352694915,-5.251747324708411,54.25892993123644,1.9065666121528768,-10.603685757344959,13.137076459923811,-14.016139148904545,57.66956258194267,-21.73222622025638,-2.8537425420142384,-1.6490158245848363,16.46281791512605,0.22493918262243273,-15.952858744677163,-10.311080187116781,2.178166755878898,-30.795696547932618
8.89012219847463,-31.993598736648355,-4.085080229454675,56.13508902393516,9.262048436943477,-4.647262470125195,4.750148288499535,-14.207811781308417,57.94396250315921,-24.326114856154902,-3.06233966992194,-1.6089757211012952,20.040658879071547,4.801753274643765,-15.02092855900389,-14.664361120582114,3.7092988689040673,-28.141780199869668
15.031899602894722,-34.00760469957454,-1.074435780906306,58.406932199030365,26.19030938827476,13.801389117877115,-1.6904151692430247,-14.20540482471469,66.72166089207863,-21.06382762534635,-3.5758245400084974,-3.725217405612561,40.32058539321031,9.669339572864715,-13.218555296932548,-12.675491156835966,15.79277564896423,-28.129295696116756
26.1506010985511,-31.632616671750075,-1.4934566494365171,56.19148297753937,32.86675325822248,17.886441558756793,2.50698313751559,-21.040286020745405,69.84203614165003,-17.02340201366392,-2.5386521044889,-1.0639712689336065,44.7824999581371,14.339376796177657,-14.061347326213664,-12.84063749424696,28.66273412784533,-24.996326065530432
39.70717221005383,-27.016903205301496,-4.072713744871983,61.10991679962101,38.178155644976506,23.037869979055515,2.498426544980152,-13.325419748116353,75.31276606816331,-9.665570460759639,-1.4156374027367384,5.495913854486972,49.44219694526258,18.714173420648667,-7.685799465602351,-10.081538479316189,36.947904659624115,-21.08654447820001
44.37336090680811,-24.554859723917623,0.7581330677878597,60.17365238868805,39.87830591654628,13.532831390143947,7.1708308368097775,-2.389112426045237,80.00853857047011,-9.732516935428759,2.6253481115734054,7.8489168923970425,51.467521764508895,20.156935426624752,-7.080314638109794,-6.351286835480071,37.620798384000636,-13.567761728199972
50.989221176150615,-29.51980046714182,-0.8684306154312829,61.390516371572936,39.33432591878009,-1.9370812747169062,11.934345186618668,4.34663995811389,86.85881395636667,-11.65758186269559,0.5998493891353611,6.190424981982311,56.913168936628566,17.0074448980106,-13.612021666308639,-6.6303623794537,32.73212396206267,-12.107977345591813
50.5702847206393,-26.286282751865564,-1.725844273209173,61.44003128087817,41.81964315068809,-2.2777412959991956,4.972447463177922,2.8778630661185574,88.92961337838042,-15.147622886497615,2.8596468307335385,7.356551653457721,65.48607451502298,8.289086759768153,-16.636144378366254,-9.746804512366417,27.84826375296466,-8.699138044754104
58.15588624690371,-13.486893740702698,-4.060345161727511,59.931445616768926,36.298838519047266,9.483516924020762,-6.292808254283496,12.63844085424465,92.08011464198037,-0.5732645491815376,-1.0445749682720056,10.077817836340088,55.994412700089846,13.631027727911036,-7.754031737182707,-9.743420647723935,30.000461297368894,-3.927069976400208
74.62498704855531,-0.5942298610774159,-2.5008638299939996,53.64192719358364,27.85001603645911,6.881501947291671,8.803175608683777,19.077364288881,100.31399129934998,12.338799688258327,2.364017707477103,10.155011855599867,52.65720130092091,21.021325300287675,-3.0791226634356086,-7.987346056400401,38.89562473850066,1.8177177276930863
95.7783448282558,15.712275979874434,1.7806035199880021,49.99333130692751,37.76246054182716,3.490696296041584,13.541157212970983,37.722208796354394,115.48643956316744,28.862257999358256,7.811975194780114,11.10388287735092,65.33776469052341,26.358312481024438,-1.3417755898669945,2.162221265562195,55.21723477450463,7.265797654228123
106.57670703259373,30.647597674528527,1.2643104729865406,50.352727210515326,60.469574287433936,0.5807076451121169,15.636167705858945,39.568620718556176,120.89767811829942,38.05961365552564,15.006395248171408,14.877655368231842,76.6529120405174,32.76699357126317,3.122252024532113,3.7129127206892925,64.12118662315262,17.300181238746546
115.32101992053107,40.50094315695894,-5.514706642644683,46.12608856315805,80.83429694003794,13.483858567351025,9.424129001240011,34.28471183784789,121.62559497667633,45.497527777372056,13.790946482290053,15.519275761262378,83.67279230666482,42.005163013180386,7.676297399779742,4.67274362688455,66.68158240398012,22.350535437199632
119.17924633420076,43.905304697107795,-7.911848907355392,45.90714525119687,81.08280513717672,23.059289593664353,5.647464466672734,29.780754892831055,124.11527999013529,46.5862560872051,11.880666516526517,18.497644780873827,79.75655452372746,40.40069079209497,17.496319481035727,1.9167492935109962,68.17180239041058,30.327263594151283
125.08512215113606,52.38449451414138,-7.978020847023565,41.39483215462545,83.48094494715033,28.525796538855232,15.24391400760723,23.419986906625134,125.72964688318442,57.24417913084234,10.935815588672138,16.976786369764483,79.16209829720174,47.87570797548922,19.886913206178654,3.7459229213841176,75.62306158825555,38.20310290864362
128.7417422416024,66.0363671684425,-7.6664665170000355,39.91331669819085,86.75904307357474,39.453895723902356,15.361640448745959,27.50727931119407,124.71052300136898,73.17452446742304,11.347105772146552,17.792806349874553,81.69397186694056,54.66439110074491,20.12170006288227,12.601795526856563,88.15629355839171,44.80628824372009
123.99670363515234,74.11876569906067,-9.223400506287973,36.28656978603195,97.26472601207365,43.14813868795519,15.278204079838954,21.046214273401795,120.47162281288924,75.82248865668447,11.649754488266986,17.23477265568713,88.52392602110965,60.962004678691905,12.341321456474699,14.910030896991806,95.12665346613298,44.08216791479903
110.26409391130343,76.72953964308314,-2.1018708042059373,32.66288715369623,97.90775875701407,41.85471110607059,6.399799659356098,19.857342075240123,115.16107205913619,79.54392559776926,6.2773564386979395,16.572295807837797,90.17901208835016,59.44416572649519,3.4795849769133937,12.916848805911801,93.2136227345745,42.280965820098025
94.28233068914388,80.31428871168023,2.5650588836981925,31.38587445041609,97.47720366199121,32.83925373357641,5.328319773401137,21.206242420986342,115.1262741919414,77.79593157928348,-0.37540185656591696,16.00074881983739,99.25692493182285,54.60307634457868,-4.314928889776837,7.305947203311188,94.13597066323837,34.42226594211161
75.66081627977208,78.23247224041559,2.042893050264901,32.260030635591455,86.30480652754122,24.89102043076565,6.204377608249207,19.917051530958542,113.04254428960583,70.18803918050251,-8.01545667927595,12.981085414763356,94.95640661697601,43.11831799054859,-3.5224618482239105,2.7649933381856577,85.9792895005643,25.48674184184187
58.305893499071075,78.39454940305333,1.3121001569711161,25.910021777127763,76.79295889028606,15.763940140272481,5.5123729079224155,19.407786752686174,106.95636877102864,55.93914858144381,-13.029378901390306,14.056426384686759,88.50793239119784,34.46263470259403,-6.350117069511112,0.8566086668490076,74.70053419055384,17.622992593252807
45.342643417318754,73.18339502033027,2.911707610705669,28.25386345521231,55.269432286151435,18.837179901503564,7.842298606203931,19.385471283375356,108.5863137195827,43.15501279152237,-16.19833549521476,14.148618487216318,76.49331100450097,30.100834515242973,-2.836688731839601,-2.423074710716527,71.1395431415737,17.86250415418416
28.27487645730508,72.9509042161795,4.4002004717136,24.838009024524148,47.027433352980864,25.71223033965034,6.260535023894306,18.48289313799878,106.21308406688874,33.39831463761376,-23.186378274750183,14.038969739503862,73.2680545627615,30.911777784912267,0.18189960310071562,-6.878640096305773,69.92496658209507,14.388818418399435
6.809653909150484,66.46660746683466,8.902557340656848,25.428026499435994,30.582108174659208,30.236709706807027,4.380499106730619,20.99698920751165,101.00820338495207,24.61839891048804,-27.450339414727388,9.430582334893483,60.3746692818155,33.18440992738591,4.7565805848693685,-12.119353598426898,67.63860646932226,4.760620026090595
-19.1506464849719,63.98473382362775,12.121770872976704,24.359556211123753,30.738368832439242,18.93390532004164,13.432912189178563,8.275127391007437,88.5767014838293,13.592715820334586,-30.357325966345783,9.503323084460913,60.860195896401954,23.53955902100463,2.5865682046484153,-15.606009389461763,61.4482083860038,0.7946232847978534
-49.31301476894791,57.39985277341684,13.471830108788009,22.511302497961083,27.866853025147506,-22.454157872630578,3.3392721542981842,16.06003678255648,75.5589307417963,1.6886276244299623,-40.69643120858542,7.5188434530945045,70.91579174188574,-33.86322805453805,-18.242258197489278,6.00169859943054,43.247997405978765,-23.5836611482362
-67.17325458779847,50.81374675380908,10.608886981001987,21.152596241380806,17.18217255077446,-32.20773356220958,-7.931314368239665,16.030968883287883,62.54046210884884,-10.410109375715273,-45.772043625103194,9.043666279875193,60.75565060896098,-73.00738231959603,-17.592442115791506,22.91826732994806,23.780140196387933,-34.97515943019587
-66.77420370765206,54.38297338986906,13.396313113412738,19.11132057169021,-0.14394082225686589,-5.053249724502161,0.6176497661043738,15.60990802711519,54.9897525491769,-7.761710625599477,-39.333960649111575,12.222322092361395,44.93057585113094,-81.97872359395397,17.524622805379494,30.55389218380354,16.423560454638753,-29.08280492257564
-64.0340316029272,59.2208261566164,21.638735029911146,22.832658277152877,-10.830197497330701,9.39921520302409,24.396334329041586,21.73054979625359,51.636874528203336,1.8213531379001804,-30.659558569693797,16.859518763846257,33.30379505610624,-59.117135078059995,45.31155224766671,25.197689605166183,19.90851921319618,-9.71512414911193
-66.4723397568059,72.26114749899102,30.160236605492543,24.89438915294443,-9.896217506573691,11.638002948547234,45.92408791110093,23.845854247592346,41.73909986658899,18.241570777547675,-18.576833736906593,19.43959659289055,39.644841411489,-16.0439532125008,43.600169139848916,4.310670261711422,33.8441958377268,4.963667742305351
-73.50313463914853,75.92568205738303,40.718603330639,24.515015614512876,-3.689920222297083,14.358672208428736,44.7905273914857,23.61599892935783,28.81173118428022,26.06916405024812,-7.675587514818854,20.450858643171408,50.37907710434051,25.56073781817748,25.086111058063047,-21.950647673733037,44.5583160283344,12.023962144066367
-85.9076282720111,84.1796194238357,47.259003522757155,24.526372942387106,-4.223375196977919,20.00271839229372,35.74205657285994,18.111247596124382,13.830971197595105,32.72626396971111,0.38411249456196117,23.11601995459158,53.592042395737195,44.30982660178971,11.05889807336147,-39.32811970672438,46.77717045740076,13.614351914355638
-95.38485982211117,84.91352739178694,53.00409282960324,29.322816933568614,-4.563051417768769,20.366942641776223,26.298406949206605,21.19899532288727,-2.8129218684401422,45.3420263652189,8.629771673345235,20.69670116221108,57.68208425002965,51.62920202268745,-0.23917510124960373,-45.770817675511225,47.336609229031865,13.055321671618724
-101.93477314954475,71.58445970931588,48.188049465238954,31.38445596212651,-12.814710645657037,24.631223232946983,23.68633725218058,9.14840727611186,-13.893645414020696,40.67404789600833,3.4870809350115124,18.954708569621637,53.37149569398653,57.47988653391452,-11.542389881941194,-54.657735230531465,43.79499713157871,6.050051083849491
-108.78001414313403,54.93488486139627,37.3030837062282,32.37122305472515,-22.24013870510216,30.94011318251206,22.046469497081453,1.7840008018069398,-23.024902811233048,22.433459497116193,-4.106174779956703,20.52679557277009,52.57429667661887,57.857845488160535,-19.6279043039455,-58.27379308469852,32.24583320135169,-3.788004545151992
-115.92051971433541,46.39087022875636,37.82988727763021,32.087551466697725,-27.17535690063965,34.606090410848026,26.066462107079044,-7.437296477791058,-35.38291747245533,6.245634390269625,5.3816717509650225,24.143400589447214,54.3136830571331,53.83724654414426,-21.858821650452498,-60.23220881150027,26.55632589223851,-5.228087589948634
-122.57496116601922,48.19865033147508,43.61598081868403,29.1659790814329,-40.70667275902929,39.82848655565304,16.99611636108773,-2.499618816451248,-53.01886070808192,3.829634180819397,12.614508223137442,34.98036736917229,36.90940770204425,46.687572750776724,-17.746714336430355,-52.23195477531109,16.765196147598033,-7.645225096273292
-121.12596419294213,50.49489463542804,43.72365775661011,26.340666603125303,-31.19314872063149,33.13058165773163,14.07409496241774,2.143684799514216,-73.97993145511239,2.1971102126562343,22.670658313703775,48.54541773044498,28.389011444843725,44.12371801912964,-11.295409716978181,-43.06210704815286,9.220008975691478,-2.640736999203737
-106.39759410905953,55.72114260905372,35.71143700141392,20.095677334007426,-16.89695212165104,30.72360813924409,13.491834477992132,5.2230605319576995,-83.03187036220817,5.449816354959459,27.639967108838455,55.072749733294096,30.900732548352657,44.58309107460865,-12.368198498212813,-30.574074097404612,0.014268515849401808,-2.324070351176829
-103.29249624658144,58.310993807492224,33.251366721574996,8.282281143329463,-11.099705030448412,25.966886627535366,11.050141080630175,-2.050691180177159,-95.80025774248065,0.5993999623220461,30.35463186081781,61.39837134462146,32.43243585997525,31.170835693489096,-15.593762919874358,-24.14287713625834,-20.032036826789025,5.5121033071529695
-96.18534980053735,59.04579571732829,24.526827098471163,1.2519370866045492,-13.801576136074374,18.56749028247741,12.217937816817576,-5.321885178810561,-105.3517291427145,0.04851884472104828,32.86558855940648,61.07683183991638,22.729824800380293,21.465278308579403,-20.483671279753807,-12.04946504501358,-33.04772200603634,2.3129224133140234
-77.55642240681085,59.48815262495324,17.83869503277452,-5.585531326130123,-7.326682246923006,18.681869914632564,6.05764802602465,-8.39917562687188,-110.71003490721685,3.6019803636988854,41.03242563185266,60.26052283591243,16.929614829837774,15.95464135929651,-16.881374711963467,-6.989221410535791,-44.79477207839243,15.032030336093293
-49.84706721575692,58.27093156005142,15.042438895054003,-13.59759621507424,-6.714482010557624,19.767002264548942,8.194601040758533,-4.641838109321382,-108.75044721012966,13.799006644862729,47.72625255915798,57.09389502984136,4.093904753815259,11.31849610088442,-0.1968147109471996,1.3896970414389997,-52.53894531294732,24.13798407004607
-27.608193205792595,60.66772091075773,12.134065040505527,-15.362533892934294,-11.476852095815428,20.35806609639779,7.886537072496102,-5.671145196580172,-107.48121220048762,22.63178193039465,55.19332229575101,59.487166826334544,-7.281316008671382,7.166146829532874,9.257344255348798,1.954430800041166,-62.43285055851881,38.42008308895792
-14.941327257733246,55.252630624913685,10.676073483430528,-12.247817841242025,-9.797369831581996,10.689331845954626,4.742917546995186,-3.6744787147751268,-106.12137052341534,26.09645587268026,60.79700114607029,57.96747251348823,-17.97754265914704,0.372482113571035,8.649173897706735,10.916287494205218,-71.05863398921218,46.745445627777656
-6.963480314742668,57.065013458763914,6.664475603063226,-12.847594621698406,1.546507990141702,5.409504618178783,0.8146481978114988,-7.73400904249336,-105.45247730800561,24.290801290290403,66.68588498561819,58.39420515693604,-16.666709561605366,-3.105438487981626,6.572702148317447,13.23609766464152,-78.02582722569045,54.19237245012317
3.259153002686343,52.82347287911627,-4.197687804562072,-7.689328936547746,2.3394687965979184,3.639708525007391,0.9847100730062976,-4.958914501796527,-100.78724443397249,19.265743904999702,68.1725281436278,57.54458152548918,-16.53284242810461,-4.537226865445142,7.422674670662392,15.652367515425837,-87.33855535400545,56.756992076324806
11.527399408890723,56.88374829544553,-12.535289600442983,-10.250054246013246,-0.6802616718993058,0.204126858501116,3.202385568402768,2.2093619413005436,-91.63765638520174,10.630764060527671,64.67111027094373,61.96158591106027,-19.529325064185556,-15.348898399110809,16.66807276066071,23.145763398654175,-96.45786970233661,60.88480874506208
12.37253863643387,51.17920501925938,-35.63376289294383,-1.1938029105956325,1.2763570842547551,3.5013685950416846,-4.153500508430739,-2.2450479691714964,-84.44938657598954,-7.278177711814351,50.6152664933964,67.83647564600966,-23.01962533807739,-22.845005007601323,18.29317531010815,25.95063223696816,-99.81742617550776,59.34924054425966
8.431446419146575,32.58483838815585,-35.60191471559517,-4.7399587433029495,-0.7753407426146115,5.523542232403493,-13.17257432880228,-4.259427906345554,-81.37115685896833,-13.659875114793888,31.08332583427621,64.62211748733706,-33.351720703725974,-30.345966183835394,21.477958530921022,29.535927610974788,-103.374488244174,54.396503781458016
14.938850469844319,19.753315743565878,-29.139225860889372,-11.513642065189941,-9.960553972153747,5.001140263018701,-6.666975709677921,-5.20098383499777,-83.8680735543704,-10.467377080430456,30.099219139214902,58.27552978236186,-43.29915987704119,-34.53147312496207,27.003833288393576,33.99942645948227,-98.43765231658547,58.722190355360354
1.9139482516754605,8.973678065810454,-28.25760253936971,-13.800153662060474,-11.435454477235748,-3.1439966999383486,-14.22690090655109,-2.335295954049738,-94.38180869562024,-10.2007702182514,21.979087782331042,51.433361247039564,-45.44017288896528,-40.284465080467896,22.956704480123932,31.62628545120753,-101.99949416639794,58.166011005662455
-18.045284701288075,5.714790224179531,-26.413977209983095,-17.556876589674303,-20.630110631835265,-8.169474092833912,-20.61764231809909,-2.4007445468435407,-92.89274207789988,-11.981032448693995,8.87152936854409,39.700896880725246,-56.57210578149105,-33.34696196658201,11.582849523901592,26.518246634222677,-97.0676894802163,50.57957588376572
-33.512762429146875,3.5312692970211828,-22.143481630407187,-16.241001586872983,-23.481950167120203,-12.516692160670999,-30.331354675338616,3.098898302244609,-87.3113548706785,-11.022833766330834,2.5932581060342166,27.374954181008846,-60.97227325719538,-30.71145813850015,5.675581927082821,22.777050767380338,-89.69713389299541,35.66998958614886
-36.57807437302016,-10.955970488293673,-14.469533013382991,-18.056036347589192,-33.76085345698096,-23.607595723877623,-32.13729533197589,1.1751584432736772,-95.02091645192505,-10.353465028702601,5.878818742251394,19.435948515528086,-71.23873046643081,-42.14377264395187,2.988923328898786,22.06299371156588,-96.29443658591397,33.652479540442116
-26.166848606630733,-0.9299395799458878,-11.888346067788596,-12.9434891305872,-31.251803838366563,-27.281768800803817,-36.191765482581715,10.968959024462384,-129.01008504889006,12.781424676942514,41.09196221025849,23.208074776172808,-73.60193822228719,-50.26087011091882,9.089514654614725,31.01691458093444,-100.64851446234904,48.62874348342195
-18.392472363492303,3.8237698866783774,1.7136183569961592,-15.649931940949148,-22.69331729153689,-27.83610800810547,-31.94762413410202,4.843166487816658,-163.888013931307,34.944073575043944,74.93152802977724,25.507396265153513,-78.31615661853067,-42.56259939730955,12.649207823992912,30.59566524554259,-92.99368806133701,63.4110892730714
-8.957862162244318,7.6021143662022865,11.101768215396767,-18.07002312607969,-21.95292103160183,-16.481372443801718,-34.63937239015224,4.3801491542988105,-181.4905158415503,69.90431730410279,83.17852607207035,20.08366975808534,-80.69400643545445,-28.61945574834651,7.6133727279689705,33.00657274418823,-79.28716674953364,66.96425991641172
-1.8668394918148898,11.674657844405012,17.740988456120196,-22.15716558972563,-8.717929275563067,-8.159151672687486,-35.67302144596488,-5.068745367806634,-176.73952721678762,92.07592067522062,76.67309549870168,13.38215226128186,-63.15728142005179,-22.396529733567817,4.724510531943463,23.21045285925751,-60.310292230847296,60.75318673811572
12.06057193087046,16.33438457573628,10.400661282614015,-26.25142296337738,-7.793528086105927,-0.13498386535607487,-41.10324219603033,-7.097007196333742,-140.0647148112723,98.43158495614068,51.41139962576588,2.765925054639993,-50.31591347798418,-21.940697208531105,-3.2439018448578434,19.371751187140795,-43.485125021830335,38.72315272407882
27.551005611364687,13.280395548719007,3.534158071585371,-31.622587990572967,-6.679642549489951,4.466128866835657,-38.91802228817167,-10.49382246399405,-95.09936327324972,94.73320656152521,19.698445118807836,-6.589317166556981,-35.04106315778933,-14.654137199857718,-14.533875480775276,12.603717403186383,-28.61641432665123,21.772974875390293
38.842809027590604,5.344772192628561,-4.225700139705386,-38.759188201541775,-24.810274391998913,2.8121581370477937,-30.28914297656706,-10.180977232209994,-39.597442278695205,74.53546299083457,-12.215540394174312,-21.51978743956304,-40.868415382673355,-10.693278955767576,-18.59822496123306,7.691682835520294,-19.024580361486453,9.805053896625246
40.27198998353664,-13.527260149724327,-14.441404183012287,-43.36451837335321,-35.329651989193266,-0.01864695025770491,-28.2049707765686,-15.826575322614993,-15.747179377689633,47.21358433545364,-31.9278906905219,-30.59970699036512,-45.72748419651532,-13.573822091731678,-18.268875420468667,-1.8096633303539722,-16.95580052647155,2.9171039111183674
39.16303822583036,-26.636224213833145,-3.772717494558439,-41.923131530715864,-33.84327928736751,-2.756688579814421,-27.391873526527743,-13.953835116055702,-24.72053733967168,30.541365133948553,-11.703673260492252,-27.28618954763101,-35.65336964438929,-12.651090530771583,-22.237216583489836,-7.403999751559226,-8.347401909563732,8.824140822202246
11.980600046850878,-6.442634907108747,11.959846402125397,-37.26732995486464,-26.991980075825385,-0.7143474187806333,-26.580185171181164,-9.933917787706411,-40.24764001199988,31.843220646515064,10.273071016230698,-21.63817006431139,-20.411996007908,-8.315729393274093,-23.667057711852912,-11.8256473409126,4.066164835973552,11.217374622057136
-13.63802006561794,13.752219630755526,32.75633164169657,-30.862203542270972,-24.05333220968053,2.0067999024838876,-24.890869414688392,-2.1066261484465216,-31.663998979710094,41.54877613873899,13.103722585288423,-20.980172080321253,-14.066221339121629,5.584688291365405,-29.39429194560468,-11.168202877434087,17.843430042305755,5.604600138490248
2.932964116307872,14.416791693066429,30.686672482428875,-25.344730886551147,-17.312461723280485,4.332567383702758,-16.366686317031018,4.156880794422332,-7.465865660814174,50.86891798867892,2.061937684912831,-22.773292608091054,-11.049690955140399,16.45230695005621,-21.64506221405029,-8.947253643524743,32.39842889444181,1.1656942151212846
29.56432466093063,-6.988020371174635,27.82156998737315,-25.98864522675375,-9.894498657119831,0.8918291807657956,-3.8395914434314955,-1.1044686418536889,11.83862045273439,42.81128174431641,-10.547268606576871,-19.693404540662073,0.45405232895921444,21.35739090686184,-20.34139949475813,-15.41677330318426,41.96934416658888,-5.907947227384291
41.646481814867364,-15.500746529441805,17.910984488272494,-26.93469294093491,-17.42475853253518,8.286451739891131,-0.10262880035936206,-0.9958664740763148,24.78459315477977,27.0440655121906,-22.575284519614954,-12.131347315153572,-2.5046824955325757,18.346785572077344,-7.416474261651414,-18.662430882464434,40.50139325930523,-15.127989066554072
32.44122440388303,-29.67635867574259,11.013722890146278,-35.995699400812,-30.137539074212782,-9.616877371233493,-12.382350211066525,5.459284782644859,17.40700945383064,-3.4640064960926438,-26.697636276102166,-9.462477464719782,5.757975608255318,-22.16980035442849,-25.15594086536959,-5.109716262825716,18.912411512051147,-30.49835347051497
15.523153287265096,-44.53431346273034,8.008768561516113,-41.6482526703047,-44.614885655513355,-28.11069764413812,-30.912859779021435,21.972000498166956,-1.1142752812773864,-11.309938461005885,-35.121396231186,-15.10503431134023,-10.01252455333029,-71.96927219505818,-26.000333264406475,26.315687431779356,-0.04333452342919131,-42.741511074367395
8.763811932334432,-47.9650524503821,8.603216096424331,-40.66984383694557,-47.47774860023543,-27.565750185936952,-19.463013156079533,16.412906589964805,-28.923722246915936,-14.755646416730727,-23.822613144785873,-3.7658864506886403,-47.37483870502385,-90.52365613275158,20.03142075360029,39.77346873136931,-10.018070661315384,-29.200823125524785
-13.911237250967357,-49.73435073893572,15.140923253456268,-25.443360673454805,-45.07393609640841,-22.82595746604046,-4.595592094022776,13.489434934218453,-69.92758536286325,-6.476718273635562,-6.961510063723246,9.417788289771993,-53.69153620710082,-84.7666361154437,43.40715552345786,36.04496607630573,-14.429788697798847,-13.607078339984287
-59.04488185300353,-13.90416061293002,36.508820637354944,-13.156751826867936,-51.75918529972823,-16.52802349888029,11.736372911279059,4.217098279301273,-94.3401842585051,11.57377313304919,15.462064490813475,17.707372978651673,-48.88487925628845,-59.87405277774002,36.90034283934894,19.52485158611465,-6.540067367177972,-3.479881371211164
-73.41347056038089,23.978100463063022,52.882467587941775,-5.372722295991609,-32.181437841280676,-3.593689864404271,17.2281315786151,4.123503393892074,-80.7743902823617,32.07157982812583,27.33473717433035,19.44244847399819,-20.747725310744563,-5.103531088298128,9.007349837946375,2.4204138273730793,17.55744827427769,3.915225137881425
-57.309791754979585,32.56429861597216,53.51959769772193,-6.388388478061554,-13.098952226207594,15.000522953781767,9.145392757216044,-7.592421011672041,-68.29320201873043,41.44235921447445,28.94963737831631,20.28692150605794,-3.3626922846171965,30.61842880012854,-7.263364454308858,-16.537829588638335,34.522611866924,6.332153186278539
-20.011144058101088,17.518584412120013,32.56083607716964,-11.516349256252756,-0.07825144382782412,27.340428580166765,3.601809668545945,-14.621803671718059,-44.88460608805829,35.38925493715557,8.490337204862737,19.5569411204464,5.320974257881467,57.54592130714124,-21.677432136801926,-24.947280295616274,40.156202367362766,4.356888717643162
3.032901345984987,-11.295607666461436,12.565214828728186,-10.209733590597898,-7.182075925050633,29.226803132325653,7.042919716541018,-24.288945102289983,-27.345608635877966,19.088212551228604,-15.585689213867347,17.935860215646784,5.107909351404011,59.467797327863394,-26.226777606009257,-33.55022725230242,39.1458613907859,-5.428550097622782
0.982525513244676,-30.635731482446623,5.349419360777539,-7.546903256906466,-20.93367739032069,19.878444675771483,9.605418091046884,-26.144435754469058,-34.71933008434627,-2.187163337149464,-23.063125733268848,28.11892928891592,-1.1698532816395115,46.44284391751118,-29.700457622893005,-33.16678339152807,24.26499462434198,-12.379430844326013
-10.634499012494853,-28.19690636925342,6.323639576177071,-8.606214334890563,-28.637563451478286,12.088578223811773,4.746363470290415,-23.215632834152803,-67.1032756023077,-5.584873385286571,-8.277656695194388,39.85182554181538,-9.117747211964861,27.846248031943304,-27.70373515210104,-26.043020259991785,2.935677215212632,-9.171384514709448
-18.048237436883298,-17.065262504386546,1.3276118027994563,-11.727633050971578,-30.3913996130652,7.517447512818745,-0.7957325488962708,-19.213496323641625,-90.80535869369399,-4.8745690866049145,1.329062548666558,48.83734404168546,-21.958500755104325,17.350141304250236,-19.259895252578605,-19.01492626994435,-14.978563669684329,-8.792852200977212
-28.387509861005753,-3.002597799720146,-6.415844805141312,-17.00895908478315,-31.46870550976742,-7.995256489821097,1.0848501893973417,-13.747359699599272,-98.98935792382356,-10.798510068576313,-0.1999175250893792,55.17287396634085,-37.64131515248695,5.38411736441058,-9.739977354430655,-10.129296367883132,-39.14574029356218,-7.337486012444888
-28.468325023814472,-2.708375148877451,-17.39490001313361,-25.622221304880476,-37.04533691269451,-13.453055195894045,1.5990429325677802,-10.91881105481446,-99.85833047677639,-25.895703660214963,-7.200272267100132,58.760484912894626,-47.86528705207531,-8.051767428568375,-4.2220490074042125,0.32094325660610323,-57.26086470875772,-11.05534300605342
-34.50167011774029,-11.006721585513148,-21.84365554274589,-34.24718650045725,-51.027592828033136,-17.059133109643888,0.6493158747523315,-9.360603597661685,-100.73640064484556,-47.23632141266232,-15.472539936411366,61.84602824697931,-67.18141495688647,-19.441773825962898,3.153487712313222,6.671687409336513,-71.86291671075472,-16.9189948127908
-37.307518661100346,-33.65942881714928,-33.727038517866774,-38.2940647296667,-70.68103977728674,-14.321167270908937,3.8022881516704867,-18.35018277194022,-95.56856924327215,-65.83575245868072,-40.25114578961014,58.66741676530436,-79.37849978389065,-35.13359003800389,10.238294530782916,4.72369362202641,-82.07284636187678,-24.342456370587925
-44.60063207502117,-54.357636907646665,-44.35337478009468,-38.15360461781168,-81.84528252755237,-20.571354686444117,0.7063672093609794,-16.402804437762185,-84.25694633164366,-78.56884761640164,-71.96544570387408,53.3259912708777,-84.16354455655434,-50.63489077579997,14.981689322613033,1.703671566717511,-92.38277054534748,-40.454703810897286
-66.53721424719959,-58.7456382048194,-41.71062132286758,-29.33366153951214,-84.12966105615331,-30.92673884132212,6.498630562858839,-12.307622460966773,-83.59841830460144,-116.0023751458815,-65.98566337353209,69.25932150915719,-92.6694982786231,-53.64072715159608,22.65731879664992,2.7875148373538425,-108.06605913548596,-40.255316405237316
-100.67561966382233,-26.70591572993199,-22.47826822219045,-20.330564007884593,-71.47936028628453,-28.394802102736698,12.975955667112094,-1.1817056563647874,-133.4370857363129,-112.11959523512078,-23.971787765686894,99.33810111284063,-95.22820162498361,-47.666699755732026,33.55828315598632,21.25670584581771,-116.42704886571917,-23.45128125496555
-107.75723398003895,9.925132530571014,-5.601764417463363,-9.581886952857204,-49.949118831899554,-25.47566299622088,28.830008795495324,-3.826107072386514,-196.07679127391725,-53.834260002141036,13.06012649853824,123.83517195728966,-92.42554826088218,-36.42372020731773,52.37227907242284,26.056109290122475,-105.74664491066838,1.9495071161571733
-82.21536254049005,13.549304832432659,-5.436639082002017,6.3302981500048645,-38.289175494544516,-20.60672408634975,35.70126192056705,-1.1975203688302498,-198.66457911813688,-7.162887722014975,21.477106223607862,116.57796197605639,-92.17175261241297,-28.896213624681273,65.42734616079704,31.24846204649188,-85.30215763223154,15.341306253475084
-47.09702805106021,7.604490044997574,-21.201465601911394,12.268955629191638,-26.929018475586634,-18.768455134460147,32.12497572336453,-0.42491216298342227,-145.00880777268188,-12.047376585529822,10.459182634956807,98.17195374404837,-86.26349222802003,-28.209136242486352,69.59855799483145,30.876660425356945,-70.23035289875519,21.11875577842131
-12.070142497401989,-14.257030562767682,-30.337135163876404,3.058145774665789,-23.583550103288495,-13.808342127327144,22.007586209162366,4.644204973537031,-86.18417058855681,-30.205771366035187,-11.30189795557046,74.08567746036698,-89.93529254974428,-30.65139801165902,69.47594758867952,40.370641924151194,-71.7616781336251,16.44982319546924
7.435575593548371,-39.82800183773571,-46.61321205814189,-11.927061338665006,-15.752514710559282,-21.742176663042084,11.208683761094456,-3.4708532709243256,-52.17127802898389,-59.78245025084332,-33.45420381227001,54.47523245069688,-92.24939495757764,-46.86759221807106,61.934584413686785,47.42554187787075,-86.77088420225131,1.9204976219889094
19.232949770126815,-50.651069884703375,-56.16211381254323,-28.292133841058593,-14.275850834608342,-22.550042830974153,7.052724403990352,-12.074528144819716,-23.731228901670278,-81.05042123813169,-43.49732901990022,32.40661139112697,-83.83055502341585,-61.818322041218735,52.73639019499706,51.06478946256259,-95.43323974810124,-11.433852863995021
24.396419224194545,-43.21051156461265,-54.58905237727053,-39.3964052603978,-17.29798520853666,-9.78644920905236,2.8014490915276675,-10.91270305324947,-10.53180288340586,-68.91151279680334,-47.38817660051154,14.031942302247103,-67.4130785200229,-68.17914770548532,41.39318917727043,59.003348668261154,-88.76401402854003,-20.68345179010764
23.21916073069867,-30.787731452114723,-48.82753112886254,-40.06406861297668,-26.088386770804497,-5.814936336192277,4.705077697042086,-5.454156231192769,0.5134835868115033,-57.936428732711924,-42.09913348789186,3.0619081701597253,-67.80191100806383,-63.020223349419965,30.541851178345272,67.6278815373229,-78.38425106371551,-25.339965301128174
26.15075533741706,-28.4219697578229,-37.217165834082195,-35.56868846718923,-19.650554339948123,0.6928769621824298,1.4354363242713184,-0.8746913766646056,9.893274943878737,-48.418002122981704,-38.274666201536824,1.7423246585953365,-64.87942821138114,-53.86107696067202,24.67474097904122,75.66883176218278,-64.68434650534621,-26.77055565965933
26.745994145269634,-11.79639364210525,-30.695414223288495,-32.45337334865933,-14.097922733929323,5.830765747604007,10.082752888126064,0.7749367956670046,19.95172160050491,-46.8991574358438,-23.707326005696743,2.4555747718952006,-56.00873209235594,-39.8226665888741,25.54980455743259,72.87212682059328,-51.08207786954718,-17.943818476862294
25.786339926621466,0.04579696786155529,-18.324393694703833,-32.47599583779061,-2.8873259244012033,8.133949915471918,13.166414701469986,8.967588187589046,25.513336457079006,-43.71163027385861,-9.334544494545039,2.564585672966608,-47.24445438079428,-26.080725958773368,28.577232731901706,72.12857448712232,-38.45611353811958,-8.723137358524484
23.174334503288875,11.20629048806744,-9.088394075464585,-26.652070415262713,-1.057953442724866,0.8641327058015378,23.284392424672433,12.179709831931415,23.6487684807891,-29.284809963630785,-0.5272579784226821,4.803459961557259,-45.03184881707925,-23.084502632872184,38.15172639743376,65.23490657152372,-30.517188669485286,1.3798256388929397
17.249994380676256,21.39218103118923,-8.456019976261892,-17.03242951423071,1.7420225009781731,9.705388379290289,25.29985788314226,13.438753284552234,32.13211516084506,-13.286656619548332,-13.496407819376207,7.804675199126841,-36.186954590899624,-18.236013463789934,43.62869249212643,60.98029760985084,-24.042331399492824,4.161870722796723
15.240188763088522,17.81037604752568,-7.247208407897293,-8.207000135963582,4.731452078636927,13.466077208171566,26.244289261281935,6.690001493714407,41.78394489467625,-10.853959789113503,-28.5148829000377,15.181254060913467,-33.60041890425609,-11.828093064732329,46.86372676389793,49.69660524621966,-20.593791881738504,6.06846029729277
15.777903894118595,6.418073243808801,-5.36405963032694,-7.207146122771498,13.672258681764411,14.099445140800057,18.79347627793364,4.140736024090137,41.86230900401104,-18.95916535059004,-38.84404743112455,25.56567516222846,-33.17043375776692,-2.3957328931325073,40.825568735643756,45.44651403916823,-24.272914495092422,5.43946555002119
24.429823568147768,-8.097076067876301,-14.720569354185098,-1.1420456831451133,23.876992010256032,19.515861524177943,1.482672387460651,-1.8262816101181336,17.03535137760315,-21.09794705539848,-32.17877032657837,36.711498467021656,-31.869418072354264,-1.8530310804048753,35.5730606467065,41.1986328171537,-30.68481344455482,14.286842542896299
21.46927471781185,-20.8521007879836,-22.42566070762369,3.7382125332882907,22.55261371033663,14.871443492732475,-6.937717422923004,-2.1288151443765377,2.264958023876744,-35.239156955722336,-31.273045108291058,46.176969795346984,-28.525279814033212,-11.664703948801304,27.00467068221178,41.54283771571749,-41.489376283904036,12.004863427302595
13.732487265059042,-27.256998649287898,-29.553307072884422,0.4022845611271606,20.050974096563316,17.744679139592638,-15.256771561022674,-7.606806126242663,4.485249080846884,-49.56603241676498,-35.44300357669667,37.848253016356914,-20.012764339352877,-15.521755613341508,14.925174981165856,35.54142051974532,-48.580710261060204,-0.23452225579779462
23.583269327091028,-44.89006992863859,-34.052427566775016,-0.4074582756414884,11.00103145817576,17.29565540645428,-10.09526209797032,-8.006123067419214,11.782405994980266,-59.29316417842948,-45.56729730739098,37.3113690466151,-2.8159784550369693,-20.943675394857014,3.3386309466178226,30.61632460184415,-51.95850901849902,-17.74368493712363
25.337818231969756,-62.81355023972469,-35.14148535644532,-2.0113526701073567,12.68834381963719,24.755109735441827,-14.304983371206635,-11.822919431506737,23.570912832488446,-73.30722272201086,-55.39555880746488,30.503298662429344,13.10421025945729,-16.01605905462503,-10.196316334266868,24.423715881129286,-52.50138008668914,-34.95607395692647
30.715242990545537,-77.60931657607053,-30.08578225039652,-6.362520411599629,13.491782037218726,23.03303616142642,-26.127979880122382,-6.654591150054522,25.69083215440014,-78.619540907405,-62.095437487692514,31.6817699929365,10.755584074827738,-13.824880676850995,-12.691100200702266,19.502643970524694,-59.681806628875364,-36.14873220674085
36.102384476793056,-78.33959527141096,-28.943777481898927,-5.648302755041506,23.079608123606,19.453864995246875,-34.333496012725234,-6.759096084362794,24.197382718038654,-83.04254647457984,-77.67855530602753,59.694428030781154,11.720739529523954,-15.834840239532209,-12.934831311945018,18.489813043051218,-55.33512613447492,-34.99368084414439
33.979770885101395,-69.20355766670318,-25.074450216564163,-10.513347342988471,26.803310499457098,8.548863843644389,-34.33150317768649,-3.83545301155194,19.96992665854897,-75.54071962316189,-80.95289867854063,65.7121073017804,16.195234758321078,-22.43639967602071,-12.782921948315604,16.20930501921379,-43.75795140695341,-33.541668398907355
15.460718841455057,-42.87675702213315,-22.969755528155158,-20.56697070672266,22.90520288639233,0.08390904638386587,-34.91108388841781,-5.793864477437236,13.399540638110153,-66.56323978229598,-62.83600997709657,45.046944705518264,13.241651982996686,-25.23082153422724,-21.219800495307155,15.493133612796978,-33.348515726208845,-31.011367357172123
-3.731707845370611,-22.992245462709988,-7.883067257777096,-22.23468800801819,26.424733817128526,-3.694767755326817,-35.77915155223986,-6.188844152224341,10.736768582331905,-55.91458921430419,-51.355369093542606,39.69148115144121,12.137731875752067,-20.506937249889198,-26.52645541103501,15.657631141850626,-25.376033052198544,-29.746496289083094
-10.413550062588067,-22.53837667759497,7.002133451430996,-19.911032170979606,29.354128568560142,-3.9589545101790122,-39.474694795775974,-7.071128043392704,6.806201307194527,-41.34843427223095,-39.96761228181308,28.64901978693043,9.172741693780935,-13.245114630802217,-33.09740316918969,16.019127324767528,-14.176013834318724,-37.46194785841283
-16.30357600218517,-27.549963325480892,22.17445540209009,-16.428005885499186,31.59589270103109,-15.454863707780554,-29.591101450122203,-10.491451125257646,7.4677563857392,-28.91934599408797,-19.980902001821235,3.32540179891771,11.378305917652384,-12.52734421345022,-35.36607155713396,12.573586270150013,-3.6544234314362143,-43.02466926167634
-15.54216431707794,-28.651727115281467,30.11457897898334,-7.976879155457631,32.17361536696259,-14.256241381518421,-31.421615221004505,-9.223062048852118,15.944594165850539,-10.228546801838245,-1.35602569794613,-26.41621327506681,20.121905695276304,-10.34550980020638,-39.19184468724788,6.688145507116765,4.626561843172368,-42.43062110599359
-10.57060537612259,-39.80858493459997,32.77599158252352,3.000988963572837,28.157734096744583,-9.347490609036955,-30.317464984249757,-11.176158201411178,12.99859616140344,-0.022140615198964042,3.7001044074226,-31.27876971841019,18.606687894055646,-3.6720378814645436,-38.91049399208099,1.2924642808918918,12.52278951831643,-37.82820001666615
-4.806770874617351,-44.418576320979994,21.76046633310066,9.18135868391353,22.8687849044101,-2.19336707571145,-21.59097005550019,-8.147408888663666,9.079597927986882,-21.444794257083764,-15.456896962304516,9.53857111267127,13.668977673248072,7.786230234184373,-36.47509522701159,5.956926203473685,13.393886321848612,-38.494816056188014
15.519225707897858,-62.59904645255233,-12.306794917657475,3.3376541889843523,7.5177470819856005,17.362646027898847,-18.03518624631694,-18.984676505071366,6.922474233820466,-64.14456710432245,-57.26419460681859,58.43732600385576,0.5238340901904266,15.826231596724725,-31.006650218939825,2.5171148898853346,10.56057072151021,-38.57092799904187
22.184438458126117,-64.27125746803651,-29.581083192559596,0.3139551206014275,7.495811971434769,10.648196875393658,-8.809997337062677,-18.58983948409042,1.5471387063473543,-83.97993804149434,-67.32611309774225,78.40496535089297,-1.10158624869986,19.9598663224398,-31.58725077614693,3.4731427274519504,6.464643426014156,-34.931409812217744
0.638000782801611,-44.16153294740021,-33.089431374329834,18.762999129868845,16.650723801706782,7.937299627449406,-11.884321607728808,-20.537240489633025,-16.90938205517838,-67.96220283453401,-45.34936238270893,72.37098286324328,-2.92591448552821,26.730393259013752,-30.794831070086495,-0.8431863722296313,8.626109192353987,-24.939422675490928
-12.791275722115673,-32.93424035348571,-37.089506436427115,28.606317640562985,18.087878291969446,-10.496793040345585,-2.745961616603327,-19.84625073210315,-17.48912644521402,-26.05222415163679,-27.759960201781794,17.092605927057733,-5.73011048764922,28.227727004094156,-33.41454320291367,-4.084200411233141,13.920280324522679,-23.8294927775218
-4.235864237498394,-42.69877211205526,-37.869945182015385,35.019892328697246,14.932510751743845,-2.270504239396441,-5.906906793170922,-15.735523462117467,-1.558845566978647,0.8316335393058409,-16.90137065871005,-32.15610651658935,-3.7520613508898677,28.065396635705525,-31.145402485224203,-2.148356543145802,14.241925264717594,-12.16764717962436
16.440926536161925,-66.42359925902184,-41.77812571107873,31.753755299986736,-7.463849393476767,-10.939066899106889,5.391165599751632,-8.497946331570953,33.323360266159625,17.572487502204936,-19.804627237597494,-91.0982636648105,-9.882278552952478,24.778729747428713,-30.72571657668737,-5.680431642799135,17.892313349150903,-1.965703954139645
18.18405350123263,-80.37771504185417,-40.70807470064642,32.77309686416797,-18.827109470907892,-16.09189263466085,12.691043122893667,-7.313260654114662,48.77845393322535,4.931994568923521,-37.93427027705668,-85.90481760227479,-10.83899542825159,18.465578642397332,-27.663153376271048,-9.504649475265452,19.109999552851164,-2.794036425047457
-2.522048628552442,-54.09172452264056,-17.764616396228874,27.140389566813596,-17.20391870095623,-23.68598135785759,15.113904983658763,-4.564075801183482,39.8263436586659,-15.800225115235623,-16.699295512749963,-54.56482301136223,-16.875957098564722,20.356778737162912,-26.254577745096295,-7.566314770434957,15.551559645888425,1.9492576141461235
-1.8289461991667029,-26.14025104761273,-0.7798142794153442,16.222987165109856,-3.5706557981036413,-17.705339893190082,14.808318670252907,-9.332474124535409,11.936313732356911,-24.701758837218286,7.278973593686729,-7.039552849974875,-22.133378178598544,28.011082441938186,-18.1013486767813,-3.576506732722379,17.47141744142823,13.143185307820112
13.427422166869102,-19.472675681786804,-17.878699383011483,5.489874445490123,-4.490024722379919,-7.817959153772664,8.94230517724232,-12.829171003802331,8.566506888660818,-27.82715205757044,11.148956299665247,-10.322389583250107,-27.39219643304704,32.73714729160047,-13.652769369165412,-7.887031192681462,18.522180172986594,12.428180020007606
26.15704987189865,-33.1122294433651,-46.50193002172483,6.757795241398011,-11.563255835086526,-4.766063618264542,6.305154748835413,-15.05407796281133,17.900782140467072,-19.219047725153185,8.778383307114161,-54.15943207426747,-17.12450405233408,28.285074703639573,-20.9166998861386,-15.322113433067514,15.96979038574053,6.542715285067628
38.70381523079934,-64.81258917048712,-69.36367697894583,4.694647563944482,-23.12996098198669,-14.40898917766038,4.357857868599725,-14.249266795066857,19.23614101663975,-25.733089233850443,11.105254058523833,-95.38610919603903,-14.474855563607964,16.608216537679365,-24.463143044353973,-25.100577016397786,0.04883194767744925,4.76436676495897
34.856620445508824,-81.2722669407691,-73.86567715895316,8.578085876133674,-22.099826527732198,-17.41037318424745,-5.1027458880201655,-16.078797199873968,7.201846791461083,-13.970094308243187,18.911163760494617,-123.84615402181963,-9.677144526371386,9.035067874444586,-29.07725427602955,-30.972411872475845,-3.3610378200860005,3.5775469787857492
5.533377155236392,-60.22509624222091,-59.71453742022636,6.201067749560281,-25.465087655088702,-17.969366781061858,-8.111511988328534,-24.351231535253746,-2.3811114288617734,-2.7777718864957137,13.446160126500473,-116.49246556881162,-5.563110658645535,3.1243825054540366,-37.005088201893365,-36.45338160519839,-11.447227003237877,5.6191068227824985
-5.4175135385876665,-24.42512572473272,-36.48029118708283,15.337482921279062,-8.322806589690469,-9.347452635780993,-7.207456111163385,-16.019253411920754,2.108968538651542,-8.07409918902113,19.41798556531642,-64.43830244407987,8.121645595006243,5.614741772151689,-29.49628577567306,-25.137070340582603,-6.435675030507486,9.424272790070049
11.867450109088908,-14.400109897752998,-24.768291459961453,2.0026248028967935,2.276039069317223,-5.21657953138831,-9.617167664454264,-9.3447703835195,6.219167845418351,-16.77270535165472,25.986965210804605,-40.73175415029684,15.459251301201526,4.0061520944482085,-20.61348913762702,-20.75439276860118,5.033241014188704,12.649352330764174
35.220025197838396,-33.958490340614496,-37.371267109192345,-0.892655243594918,-9.781859062298835,-3.8187717443354554,-10.067047596448768,4.656819553710452,22.25478371015558,-12.564515074857024,22.704055098882876,-69.39671122973567,20.063383195837737,2.4004355121219554,-21.489608767343228,-19.985068790513907,17.10040303878398,1.5246978539375
56.82765065811315,-56.34183354735761,-55.83146539177071,-5.653033576482764,-22.132657498268124,-4.567944879597476,-9.045305879071652,10.067394646572488,47.77478954478033,-0.039210692748774534,-4.39546762792939,-104.33879308158204,22.227356266015512,2.262654788952779,-23.92132319020205,-26.24720147564676,20.586326548024964,-0.7070542248435681
61.651086594908584,-59.67459082005883,-72.72645358992804,-8.274337977218059,-19.93215655267555,-5.510804640083617,-3.719791754331051,16.164529994421073,44.204789551694745,6.545407685842434,-20.15448297146091,-109.62001005834566,33.08449584750888,3.5930062067148736,-20.09594254065447,-29.579782466744852,26.42901796874944,3.7080627678186975
41.29181330906883,-42.4916791818505,-44.1097997312327,-9.830592731308606,-21.44212832422504,-3.0338736203805627,6.788488216997321,19.432636553759778,-2.712840437347345,-25.330459213707126,34.119643822750255,-61.216602506983,24.60737445522288,2.5830337148644347,-8.9391617314013,-16.506123613031384,23.105199644228243,16.13735226580558
15.086103098842228,-25.984609641049374,-33.84921269265367,-5.145720763672568,-18.849726243496335,-8.660622625816522,8.416890634328695,22.50856264578354,-29.597827145861856,-42.54077458428588,40.74966801949919,-18.504506287840364,16.42554255333489,-2.915537708058147,-0.5096588242693425,-9.5852416106951,11.98241146354799,12.654763324533668
5.495269686781416,-6.442167994904516,-31.0065683314738,1.2882447257888323,-11.568774535912993,-9.011797231781248,-0.10406662629899421,22.365007323389733,-14.965074077882944,-24.577189107543333,21.513596822873243,-12.636555551201905,6.2932173686072375,-1.2812423630911818,3.239479708948224,-6.571085785544847,11.322977911117956,11.327073520202198
0.8004114367444792,12.717846144833452,-25.815631514367666,3.1237794789258118,-14.83364943380723,-5.747433518014393,-2.3678174878140332,19.978636572803314,10.618933213656229,8.540681828432163,12.935755042683638,-41.268964538574224,-0.4180797906247058,-0.32650556370572514,1.527059366278773,-3.752737879247521,16.83028075870312,9.712935206692633
7.739933243716823,-8.05572973482463,-37.12388130596785,-13.701596224326508,-43.19512117671425,-14.10199198552228,3.383540260169755,15.056565278461473,44.90844696577509,11.89049627978357,-22.19112764218881,-85.74908962470184,-16.208193910246916,-10.891143378215407,-4.474960534477211,-7.282709801122152,9.754351208653993,-7.6174785454507585
19.47780772571384,-47.8639163187911,-46.082905631376306,-30.632670884572704,-68.62518357970815,-19.62197869585529,13.34141471305323,11.212217387259903,50.50092581895457,2.8555474156702587,-35.037853983194694,-123.42030436037791,-28.47893080738376,-20.76774609892212,-2.754612574350781,-11.692240695039366,-1.7012485725048148,-14.003508560355527
19.900515748989854,-69.01060257575622,-54.45007236308791,-57.434971626955715,-86.24071324073923,-23.283821238297616,15.298645306539415,6.785498276457716,27.201419966568473,-11.337279940979009,-44.74501552673854,-132.11425531557424,-41.52688558906202,-23.999000371198292,-1.808055889073933,-20.106449047140323,-16.657292525637292,-12.37479086755717
1.3907550945515368,-57.62816592991936,-55.09589203135887,-62.46713774309588,-90.47498105024735,-32.704672143475186,20.87655698297573,3.4366758301587286,9.581127364331268,-28.2463338816276,-39.30038654200027,-115.83484755043119,-44.02341538833264,-21.17066250375446,-3.8813554426922687,-29.79098704623258,-23.785182275255607,-8.200062733093253
-8.511996519903775,-22.017290960839894,-44.69952428432008,-56.76423495887424,-85.8200037237426,-27.571568904475427,16.40311682433309,5.462776205068792,-26.3834061221037,-39.47284427305976,6.8826825790396455,-73.01947890771143,-49.835574950635866,-20.290478223461566,0.20537812759243934,-21.605004552723926,-26.502644367541244,3.989605428200994
-3.167024313265184,23.46655742665736,-41.03419814543101,-64.54511793107339,-59.67769217745946,-38.64654578473605,14.378563031450469,3.781714396166077,-37.91774865329176,-31.2468694771247,38.13959946473101,-54.254764297316214,-50.955086103284685,-21.455917571625772,5.862291482873365,-13.6152483429434,-19.73118840229077,9.74096411536566
-1.4222902600663403,26.67436815548841,-35.99383927044086,-47.430023930485206,-56.77504966639149,-40.53843518735617,12.361496255323242,12.749262218758236,-33.22481729689645,-0.3455082773692375,40.79859763245771,-65.40005736357784,-51.09260058918354,-17.635436927854073,9.18313405008938,-12.65782291310804,-11.087836932322478,13.644023002212585
5.413719772170417,-5.264622631829212,-26.159942884692295,-33.44644760895596,-62.56083022765911,-47.40745304003024,19.824758068635234,11.369088695819622,-9.960502016890722,30.281861408881447,32.63370036742441,-112.41235311259672,-43.70470877196243,-17.911021270413638,1.2811090212399137,-18.43981548247683,-6.9200689175339845,6.714365676796611
5.133756880817593,-39.537194486926886,-30.86825599154406,-36.36384770033801,-73.32379628444384,-52.31974222570139,21.7290938307331,11.262547147121476,25.33244375665586,39.93198461702607,1.8286329544254518,-168.72860262596637,-34.06458915444367,-29.020871401691377,-7.882638124672953,-21.683798851849414,-8.106537196834136,-15.051879784909415
3.2066164497119587,-73.40871257981212,-40.84080634984228,-44.26769149043837,-77.8330636980977,-52.15009638396802,22.4691356904113,4.812415130004003,12.497157857156049,-27.93878961312251,-53.17881952067486,-86.69014269360046,-34.18380614883634,-33.19109705279652,-13.22985054654691,-22.096855513825542,-35.05745026462724,-22.94324267084685
-10.914782231535504,-46.135846400831134,-35.08069181562634,-74.54076259063783,-58.607652602415214,-57.54304948138648,33.08023857203881,-1.6334739567133307,-47.48948624402221,-85.53597797284968,-58.07081096886803,24.424192147254445,-36.444720506050714,-32.47233102763738,-6.850198641392272,-8.936687293738798,-45.58441311779726,-16.373681790568803
-63.10979181903929,-19.242758371330275,-9.388140767523684,-76.8890250649052,-45.237613746852354,-51.50599407973785,22.018979094607197,-18.5244190579895,-95.348954190513,-77.68278830712997,-22.612812817917337,27.014839292913138,-30.885909595475447,-30.966020624500263,-16.08779877079995,-15.30931879952781,-41.34736431490015,-17.80438304115537
-125.35069919035197,26.021048880272517,11.432270064056297,-46.33162886664608,-42.41027425620933,-40.28886404700925,13.406842105740282,-25.64518979597336,-118.48312168211666,-41.68431461609536,11.78859226360895,14.149834922090747,-30.300206903617593,-22.031263811257904,-22.68060450029917,-19.925410778595946,-37.678334587398645,-26.551648378119342
-147.53914877066654,51.56926503145324,5.115065344499229,-10.896034690543118,-49.34412817336094,-34.82916404107202,8.220424349310553,-23.776971045496666,-92.67260391354499,-1.1735738316363253,30.192065563000188,-38.09674090291387,-41.52332672367227,-12.894559880425486,-19.499553697019667,-25.812398609808607,-29.88952681399323,-24.255729323887117
-109.36240260208339,19.803865192147583,-15.741417199073389,10.277156425004321,-59.300548024983534,-25.751588154778357,5.483164039860929,-20.04870195837551,-45.456629242910815,16.505416118107,23.711044444121715,-89.7826295031557,-41.41006037909604,-10.88006823563343,-19.044792002130173,-28.282753481711797,-16.22288528399669,-27.03006026718085
-51.73913274586027,-25.13365063209835,-33.36298010077499,-11.718425399819097,-64.17369888514847,-21.063907739339122,6.464623656211948,-25.593290249633874,-3.104886634313625,22.876410681194066,-6.48229049686217,-135.24342242839936,-37.67504863546737,-14.620411929987622,-19.167806126481373,-32.903006526256135,-16.209751181850137,-33.01905207873583
-17.931804080774835,-54.3363938257807,-56.05004332219738,-64.57757866982797,-86.71759290953752,-19.49640848371037,6.965528440383016,-30.351915296221648,15.437253875927258,2.0213327967262025,-53.74692940508548,-156.60747716597305,-43.50176957793215,-28.90065432174492,-23.579549368438233,-33.61841498124225,-35.80704970222476,-45.933607560706534
0.2627403904494492,-84.50364467261024,-78.82157530200453,-110.89705777718149,-99.58782306173714,-36.674164915252256,14.212555413178366,-34.422162781356874,16.517764999585587,-27.016431486230395,-115.93412284671159,-147.52674802781078,-50.29602943468498,-43.07593866164569,-27.49475390652333,-35.60487334257307,-50.014212655268544,-66.4572403969449
25.69631137244498,-85.16599955395347,-94.4504179249323,-127.43398468331624,-100.14739237641359,-43.787979741483554,14.631279101555254,-17.295836616227177,-16.367304060941485,-72.44001380535661,-117.0658744072332,-75.48089851604267,-65.08887738151242,-45.231860575482784,-12.456070669689922,-23.82312100613135,-56.19430493811803,-46.24927963820018
60.90790216526124,-39.135512435768625,-92.87734042639542,-145.43849575603696,-71.89190693927841,-44.060394533749324,11.835032427851193,-8.758478352267392,-117.30031001438863,-120.67487826526747,-33.801714372836074,55.233456199738555,-69.91098598543256,-43.08322462252491,0.7354354050732255,-0.6169721947955011,-51.124455965564955,-19.48984576964886
-18.616221449467552,3.782547699879075,-26.24956878405569,-70.86584235446625,-35.23160111360086,-44.522602989358475,5.726150297773305,-18.868767578698034,-194.09216462754642,-81.09454085649907,42.060346361918796,121.17727423420521,-63.88313755750849,-39.071320736912234,6.220331043312951,3.837305866999376,-21.0347705488305,-2.9759826597782713
-149.88694035986808,75.71775019841101,51.038014544905835,60.83456494363183,-11.553289541807573,-40.6821859007033,15.640853993680654,-21.55202166086101,-150.84279898145576,16.71079511241895,84.05531983623949,87.78007336006968,-53.05981954450358,-26.457614807946342,13.666760964860096,7.704030277685636,19.523890146052988,-1.6881488679216154
-190.12876963485044,103.71992999180281,95.3328755733248,106.69214764706985,-0.46611408025002987,-38.78907608716033,15.016223004599148,-16.515203073677903,-73.49087013892336,73.4232902991027,74.60506698164335,41.07869643571894,-52.87066841227325,-13.347552948926793,15.652762567777636,9.811288556731522,46.91848301444617,1.0732139847416367
-151.84203918591817,46.77299664076767,100.19007596671418,107.33288246952858,-1.8721934668048874,-50.75735609748797,25.434598765397787,5.616893738864595,-19.36133157782319,72.63651678600493,54.335456155249794,-5.156725472141645,-42.904936354802814,-10.092713221535261,17.64719204251832,13.77240047359856,61.63741426595158,-1.430194856437721
-78.67990622124589,-11.723186115872483,71.1765756995671,61.1946058978654,-19.189329146211378,-47.28954314209784,13.204037838182447,21.211156271473033,19.74919212203801,45.40569803133948,22.660783453414624,-45.84758434627728,-28.142894766843874,-11.614754878770924,3.4388842566933766,4.255087210087826,52.54780614209523,-7.342796642329628
-25.233203237832285,-31.240509568215753,33.390878673165254,-0.764814817104309,-40.40540408610789,-44.20603158424747,7.524177472348734,25.38475613690658,22.35610816654484,31.08695470328516,-3.9145566369967195,-73.3761551826166,-23.232938497858157,-18.5971481871949,-4.315548462044877,-5.5568669141712865,38.9859825326486,-17.152800144298613
0.3923129514525421,-33.55651066335486,11.345537891141085,-56.37670593805592,-55.85209188779024,-53.71388082914737,21.871754788580454,10.032157441172398,-2.458319271432593,27.531856850908042,-22.06997088286616,-81.19893245521956,-37.354636555794904,-25.86390356562638,-2.100414069311608,-12.343106296610552,20.56139017123354,-22.559219407981765
17.532701643297756,-36.34710904983109,-29.04154252485815,-91.38266776804176,-63.67369064436336,-51.10552616531947,15.621114903522347,-4.729090982508891,-15.435600497587497,37.47485012252629,-43.91479552388425,-117.36307180027785,-64.35530078592696,-20.71939022123381,1.7833896068528121,-20.59589148850982,13.778250824620091,-25.124502251413237
44.742751087346115,-51.52642583821357,-65.01565882482673,-85.37186025804402,-42.87358708089104,-39.40820297577887,6.155296611651691,-18.801279289811472,-9.251343508074534,13.649605468499512,-59.87835521562268,-101.69110057832751,-81.08980472895198,-3.1634885806091155,16.32038132806865,-26.994860753475628,24.593735959132886,-16.645324632012144
67.08063528184508,-24.40601184450535,-65.61886255209347,-71.54754016844596,-8.100249201225452,-20.96554460746011,8.318233504842707,-14.312991277316126,-15.058323062107277,10.939777945287947,-47.010871141877075,-43.36236302428728,-76.22961741210446,21.13976677385169,39.26443622610431,-19.23513716913913,44.80463000699316,4.929197571695479
93.82363814230459,37.78756602930453,-38.76099162807529,-82.81998872394385,30.39244672962721,10.472694320466445,5.410405159675214,-13.72545985139934,-19.672717529009503,52.88087561922,-3.1636702719799255,-20.014263998421583,-53.58316697681187,37.05353500939046,56.748154745124964,-7.668436419453153,72.36013997208113,32.2748029925129
134.93263788432174,101.6554573219487,7.550452135301256,-82.37185860369391,72.01873370668397,31.371145775145635,17.451597505341166,-5.80800009151815,2.394151858874423,102.75356816449772,49.88576673692946,6.733201977798188,-23.59961776431892,57.07811006667653,79.22091092019495,2.334073672990108,108.04153192918331,49.08271559028657
184.64560645198424,140.3418705946073,-2.368853498237007,-44.81175624300393,118.82959624786406,52.96059427162051,17.97650823815138,-5.404546306576689,72.52932017294701,121.88535741274032,53.64064135767352,29.75154836221465,10.88915925287639,82.48313985968362,86.85817555543588,4.13167778296223,135.05166301000128,51.25137411892118
175.57847144647144,125.91676934396119,-8.361321104828125,12.477623319317843,150.02409977782426,50.5337727436235,21.43842426094132,-9.97595776702978,132.23577195040355,103.53781288052059,34.66403892192579,35.17391925230015,41.973079750969774,93.54185204536574,79.56227910323892,-3.0568718843078067,149.67951149839138,39.56210147857844
171.30617950293873,81.03681619778064,-6.715544302119181,41.644371422146094,174.00096569797236,50.94669744535612,9.868258856975771,-13.85804886104674,192.4511253822411,73.78549114858194,23.42534634616935,-2.3901400560158237,84.39864374779053,92.10982852043713,62.41140832717849,-17.96200745623336,155.44071213628342,29.444878600770213
155.32431970823865,29.335240610233036,29.81539105495279,55.970325748432714,187.92826656929233,41.40633840830361,10.61011286226232,-17.05078580474317,244.19079961808657,64.75771480352165,7.522194394814071,-46.02543169433254,131.42763655605341,83.46066556814586,41.36266569629217,-33.357035785453164,154.28835925322173,13.575429855755276
160.15265595933317,-3.6015840281370997,62.364101057000425,50.18235408808803,192.19677128454742,43.88581718401103,9.015255006711193,-9.983679280475172,265.48171387644175,71.27853557682653,4.142500660355704,-71.80522303710491,164.50524456345704,75.89534272892494,28.916218289373052,-34.20264138702977,147.39426846075895,15.879953238192194
171.92351477925925,1.9532401237276682,62.903202602028294,35.218509549899984,202.52950451367724,53.990661284591255,-3.2172966889096735,0.995545284299709,275.95296378301873,74.98819593809242,6.059739068853824,-85.00243173481373,193.00675499437867,76.73825530497476,18.333654387723467,-33.78025029348023,143.93817307108213,11.944062049160538
165.24559851424434,24.417375421396137,54.089671010689486,34.32172068794071,198.90674831927734,63.32242645218972,-2.1614737458412954,16.570516544502052,289.9601057545566,82.52730528445926,-16.413905512136353,-77.99913989237152,210.3892301400201,83.54801761641475,11.275123933707498,-28.57415412006923,147.6309557970316,8.506185268885705
176.6426059214894,40.64594870995288,46.080281805163935,17.218474389698635,199.6882666720743,68.85383950061212,0.07308244717544099,24.729353622828455,296.66297771712334,77.0009429025874,-37.301345356210234,-55.775264436957244,213.43008175303632,87.14485283184447,18.775915938282516,-26.006308280520535,155.44509800208476,9.17970067103533
232.28650450638492,73.58852825341427,19.63682132572034,-38.552123566750446,209.6593874902742,64.62789020366642,8.466831301412176,35.62847923341184,257.97488632976444,83.9952901299763,-4.746200814958666,-50.2642451257737,209.0631124850007,90.45853671894372,34.19526447354951,-15.334325448769853,158.59125700591215,24.902312923329244
276.1214338589585,109.0847288838332,-2.388447816000319,-84.74676410817587,213.9762225879908,64.60974230100496,17.160219380562932,37.35366329605118,204.2671921485824,87.78728916039579,37.98925945291778,-31.972789943040738,193.67507464868856,93.68442106528641,50.40411095248699,-4.663759100885677,161.75684082868077,40.04881766779376
197.01255753396487,177.99437121616498,40.357299156647784,-85.03638326869776,225.62732926431926,64.50255693124107,17.168641904544188,37.91285109829648,159.75879604828773,108.49425761591195,66.78367424450836,-4.708883270388355,183.96551581887738,94.18577587906444,57.92960708692912,9.130480413503523,166.6995078183336,42.80265861598481
38.905519998423856,256.00064004161607,104.612014370916,-43.0339338618354,240.31583428651112,40.77091507217803,13.570205048560144,27.833248731476484,135.28946639349377,132.93220840970878,88.37551843086065,-0.1129526847030462,180.7157570022576,88.25162867211401,46.5176387579192,7.005178706415496,169.41509219177325,31.406022835342558
-30.424029998350022,247.00826830721005,140.27759747517933,17.43247776287531,247.20178528004863,23.200518319168218,2.263183827454494,19.615050023531076,134.37461891455965,148.60074321650274,78.35043777734805,12.968513638743374,174.06241040912994,80.5695652339256,35.69969871697671,1.9488630901578112,173.51671447457824,15.42939129558205
32.77421635175206,183.634877462247,115.42027681922504,51.538329521541186,234.07801098035495,21.361910427657612,2.681365082601829,10.328521989745107,178.49867142877767,138.80016539191996,55.751762230905065,10.317101103400816,162.54063862557666,80.02644680605343,34.55789769722921,-8.675174648505125,182.1291891464944,7.372973148807587
107.69726602562415,94.4941084968271,67.24794953049465,82.81951553880177,209.34311283965204,29.786337417018768,2.5197666060568764,11.399615505001655,232.6021881734882,123.3547575643361,25.16946585430481,-28.86757200014455,163.82650591310346,78.51668049148819,29.517746954330587,-18.81210099119124,184.0216256559665,2.8421844195781123
165.34039231040362,44.33295307167451,12.265060333193674,57.369339837843775,174.46198243487015,33.62989638211124,-0.37019229568514334,9.937500143169322,266.99688714809247,89.08047063938176,-10.369011624173844,-66.40060060994965,155.84936082708492,68.81358573779738,20.969810885443177,-27.973570785851226,160.5411281224085,-9.198289338176291
175.9175974404601,25.14337323296052,-7.828260818554689,20.40371023751205,149.35681407998817,28.400398890862792,-1.7893426221618043,16.977487743326744,261.3696075944165,67.71580044269436,-44.808851162093106,-70.64013678240657,151.30469190135818,55.40940354761986,15.847718852929635,-29.616456209876063,125.45715350380198,-10.486444725715465
183.08149541280062,0.8895463901521765,-47.91540091192799,-18.897174262007788,139.59410436029123,17.90655833698617,-6.32771535519899,17.18729617860263,242.47819787310706,23.517728857117916,-86.64624776098225,-62.191212339994934,141.79390028272206,45.43312671707098,17.17878706988453,-36.04557054897382,99.47284164857768,-10.397423055822422
199.72250359962143,21.86507902671859,-85.8278021211253,-67.56430248342987,139.99798877770203,9.082129614458413,-9.200201747902575,16.719341967388814,169.89195973719094,14.104021888186722,-80.41158753018847,-35.38891607317622,130.14901174490538,38.00580624646814,11.583827947721254,-23.139387327418447,80.4394048148629,-0.04437254395876522
177.40197046245498,79.47594712908504,-84.74825797134746,-94.93277876461637,147.93169470463158,4.759236254547213,-21.246934755690695,18.210358744187584,60.01697859749035,50.021399415092304,-13.702331023573045,-19.139166133207944,128.18654872599015,15.158381605635917,16.0552077121026,-9.745783096016474,79.00120311097184,14.322604506242905
144.2449050454899,113.46716897805672,-15.476878315084875,-85.47466062709007,130.77751424483967,27.98514763181489,-27.62406491456677,20.390766249044677,4.260463523689225,91.42517210599577,65.04327789817975,-3.9683784462700373,105.24190136670569,21.618054535519207,26.39355970257628,-1.7241523936255128,90.27500016814216,30.164395490746774
118.4152196694595,145.81156690943982,62.317670634834,-51.68978073951021,119.10228868405885,51.513390498525524,-10.558013753164678,22.479268587610946,62.193179901354455,135.77589215151298,100.94157315796078,-24.055968736384493,101.45230619184478,44.200980092538956,38.301856339074384,-1.4182086063776183,111.42835669852849,39.863680834282725
117.19790025839276,145.16082404751864,79.68922427045449,-5.687344818145544,103.7261507719354,70.36344982646081,3.8764687173692582,20.17888684335272,163.0127900214719,141.37334283759282,73.87503263255246,-41.90056173317845,111.83710871248358,63.863842264776096,29.025754076655534,-6.581748894740638,122.34339830002571,31.60385359646741
89.6151661700957,99.50284303763875,51.97023439144037,43.0601961006685,62.87137689724963,86.48850353054442,1.0305849549548167,23.25535226482721,214.1392605194461,104.5061533762062,32.0865406007114,-66.58351479630433,123.99365129146152,57.16872020318804,11.748954769213658,-19.265508616224345,97.43340238614408,8.705251969646257
40.64711620684423,49.85366649051768,27.9897440892699,71.40830275243289,-1.704248619147421,86.21648443295176,14.791431169995306,27.31401933243837,219.18541288719268,58.86585261013239,1.5530047487489398,-89.7054407067958,123.46844904698645,41.30330656391196,-6.301964737682958,-31.852104556908344,69.60861837267639,-9.495921103181306
-15.936959294593208,46.31149404243291,1.1071862484117005,65.0016275702972,-54.45337034881587,92.98525988882935,28.26407563435006,25.323479066570464,196.022079951756,26.03439493349279,-26.12420373915083,-99.44892257933876,125.49595561848245,27.400507871171094,-22.39268638735478,-38.38433286128954,42.18898649091582,-26.61303628205586
-54.94181888550918,42.00037670836018,-1.9190731493314672,40.83295235743708,-91.27443169655197,89.99770156435864,39.00692912570727,18.0649371993167,147.3831265886515,5.327755509296509,-35.51523718294808,-91.22320788383588,107.90769593783054,22.10096851969415,-30.370873841138703,-43.84265442347409,18.98272218891229,-28.09512926788507
-72.3639546099416,50.103863184577115,15.590733669400528,22.04749104256914,-109.43309046509393,104.8909461240937,38.03533083283586,21.749517887479374,104.22548688159789,18.718490939544225,-10.213682722502625,-97.35216181183024,82.42241680372268,32.14298473061648,-22.619327162483607,-36.70336999245359,21.278763369382403,-14.918821188046337
-71.23121908416388,62.418444743829546,44.16392239123807,12.64953470688151,-104.24185522731446,102.60585430548278,39.704816878814825,27.392643802113167,71.23614570261067,49.70199415278572,25.95187121782746,-98.88932831523826,63.88389903617325,44.34266799971195,-12.810236154201668,-29.95487112249464,30.91230835288549,9.986107241488234
-64.53255710929034,79.23682389951293,61.24165685651566,18.791838666378116,-100.60353494492131,92.61520961895374,39.62063436924895,36.556769011627935,40.79719616172363,86.36355802537126,63.21553831698789,-95.63853019077001,51.41301395044307,43.07468076560614,-2.408575380482251,-23.890041280559785,41.33981444165792,32.263914877363106
-54.31924870311241,94.21096487768688,57.448880951710706,35.39651181126745,-91.38920451567839,84.4894466337802,41.688935467007894,35.96036654326494,11.24783764678736,112.10089029526112,87.22150586118408,-77.8331248654877,44.61890855945056,42.88992180684399,-1.7661759308146543,-14.993110307002302,49.92403692599149,48.49652259361075
-46.548885037087445,106.36399586189225,67.9424529974349,46.25267408940966,-90.46635726578197,81.35358245913278,43.761089656685044,34.197238679063595,-6.963185897756858,138.9254031881336,101.68063033237706,-59.6326097109167,30.4152110092663,42.32341535535936,0.15217412622602566,-4.045246961644352,62.816916575612694,60.051075607988025
-38.878150368471225,110.03146198376368,85.30044135938167,63.079552310664766,-84.74895416024674,84.08649966072711,40.56341602246577,34.880638428496276,-17.05922870805105,161.07478710817531,105.32321062402922,-29.8054637386318,27.551960448524355,42.25396645088699,1.7838362763627131,3.1918367757810877,74.54911244411136,70.05255349902123
-26.717601390414487,116.05305517812194,102.10089897727721,76.6976098339204,-54.99852209152732,83.80130037997881,36.19737406861649,39.96363271158456,-4.685265692951191,172.20077318344792,106.84062218829735,-6.222167079711639,48.23611552950939,50.20110172474108,-0.1916691838103617,6.718236998329967,88.92875876339305,76.35241288725845
-12.411494276616963,131.36214676131678,119.22277112095809,75.29054373997246,-23.77410394557471,79.91198838797015,33.5925278762182,37.72720034797753,13.556211380653338,179.72482137680484,118.8305370741673,1.3523975141765021,67.75999760889547,54.445768490193814,2.917078313842861,2.334768253781256,93.94342624649818,81.3920191732574
2.5748350501909556,146.973885685823,138.42390700293964,71.35882088995521,-0.6462660577706743,76.81310606717103,33.52996880217206,41.452697186049136,27.50810902369264,186.08783472360022,145.68736409980136,0.04814078198025129,78.99431013781607,56.940993406414364,9.84040817900899,5.37379427450897,97.99114421391934,90.54246495404963
-5.001624279119767,160.15350586980443,163.0246638449516,60.898742342476325,-3.5841429886759784,65.52007942965459,43.62682768051621,40.49532833571182,34.435310089055704,185.82042750880277,162.8988079173772,-4.07925773696369,72.95424877764623,40.69419751993708,21.457118541901597,10.952527617853029,90.03604317023542,98.82311737964977
-24.887276649861448,162.59973998726431,166.75508768557157,63.05148566081731,-9.052332005049152,61.07213277185385,54.21481312459777,39.24958653474489,31.89565940673586,182.43771473115578,163.2379801005133,-10.052317554460387,74.15160374724718,29.43607574850845,24.680949233360433,17.215571697166872,78.08550499196272,99.00721061809378
-33.15644070211784,144.44878719225736,152.25189966557642,71.17657692936973,-21.250230533384553,67.47316016247177,57.57878645933639,36.4458112989907,29.654208751001946,170.763261598026,152.7594318311293,-18.4560790949257,63.34748780554257,25.900905382966833,32.695570827612784,18.303563371431743,68.68203809157444,94.41500986672227
-18.09064996051297,110.38784065355696,126.15577226783196,81.36795071477702,-33.537228502125615,65.38685039781792,62.31244965623053,36.18551362636301,31.714193331447802,150.89414086512141,137.81067452689967,-20.598095047677106,49.33077570184021,22.568897781256325,36.12571468248611,22.32219701284665,65.43841192763404,92.56605831689546
5.465659868404906,83.8543708251124,98.23240966506506,86.20385455240313,-38.100824315269236,53.934200008434935,62.458499595253116,43.54677776741022,44.42262490799577,132.49787394117462,126.20407282282132,-29.3682767608743,47.43340180862684,5.767823740260695,38.09630176444047,30.541125742647978,61.61566938380993,85.06168278012021
-6.531607589025512,47.56256217549823,85.86480380680493,97.89173323045551,-43.92564874242434,25.40015880422188,63.77856032039355,43.88082040106068,34.47746422178058,107.56592196405552,113.4471033442159,-30.702997906193776,46.326728951247986,-16.299214792821004,31.478189318114694,27.628187306860227,45.10367216117122,75.2221342626834
-13.261968396199713,0.2424607067052591,77.91987063602069,99.04872764868698,-44.761725864350495,-0.586160823198739,49.8659473828138,44.707161247940306,28.440858894775474,80.98055907179666,91.04326278136274,-36.515590152603565,44.44788596851642,-39.33542782216536,19.103323204350872,25.0094405926559,18.440938165912314,57.480804931318204
-43.63256045293588,-48.92651671848216,98.22598127059678,100.51505688840739,-48.617110314109496,-22.65764828171494,32.34174645678366,39.38494384148113,25.23780897132106,52.15521789231269,54.792975991379045,-26.004041867315678,39.35507453712765,-58.75105418204886,4.291937243239488,15.555974104277425,-5.677613865867201,37.599380474906546
-90.51481043450292,-30.412476641028178,99.32134084382454,103.8534459274875,-50.12074654615225,-38.079988741761824,28.002902344102942,37.19151960277223,-2.2813085263551898,38.57000557585738,43.27074582650778,2.6880568198746317,28.606489342471548,-61.55776881371486,-2.897351274471877,12.842317404833508,-16.80319668604065,33.64441767437316
-135.7448147823286,30.979091140432715,92.63175624062679,107.79453643931778,-45.65941829611212,-37.868775859801545,29.524897139858517,35.09936106173208,-44.937442930293884,49.697087854852384,71.61320555258706,19.287718560999195,24.116006397842412,-52.05266813806402,-0.0232292412800561,9.05595502733728,-10.151174755174225,48.936150565358886
-138.1114371937457,71.67256823188437,103.45041804481477,78.54893376244321,-48.514698050912656,-27.199979201463336,34.07546830896745,36.038059393157575,-60.73854784988714,62.97688566021665,102.02648157492385,11.29566346023158,15.336215538977882,-39.415736784889376,6.664077273973167,11.814294421847098,-6.327927065829655,57.59514508907606
-116.56070276602756,88.83544536764583,106.97208092035017,47.660262513452054,-37.690290975039204,-24.823997541100738,35.1113587375115,29.26511878716481,-44.31423369055415,67.86171662587826,112.04895405733517,-8.689350957158595,14.473954641882372,-32.72930258433769,9.547133685639121,10.57040326551305,-10.412253341232045,54.15243128378921
-82.81195687091062,95.16278925367767,112.86466676539197,19.13265572883295,-31.741286224752734,-24.97913995502146,33.70661481871426,27.085266887545867,-1.720069984463919,69.33147444724332,98.55522454622275,-21.818474131938387,11.763065177956435,-28.575503318647705,6.28202337037839,14.601870296959767,-14.88510555848083,43.97904496239613
-45.166516616567264,82.9391947365616,97.00650457134299,-6.252467810363015,-39.06636699621423,-8.719923431450304,22.92734826768628,25.787358889678345,31.00744468792027,59.6705427074515,82.73666101580022,-44.887933530134546,4.078110617407006,-24.415396879723502,10.540699233186032,10.725003758991694,-15.938429872991819,40.063322510107795
-25.304801771438154,50.504032938231546,66.42872785415041,-23.612073027400612,-56.735917431411735,-10.910282365132652,19.863475131041838,23.906375106639434,43.4181375353128,47.276828958681534,50.04188800225969,-72.72096850265645,3.0399694065657457,-30.40554759208605,-1.1148267758895258,4.604055402707843,-18.358052949150476,19.162575795279082
-12.875485237416386,3.9116334133686337,36.17039050244067,-38.219538564637006,-70.29670693412945,-17.975914395699846,-1.462151437940662,23.98126045794741,37.6596828144248,32.540303662005954,25.568562330699393,-106.7815486933287,-0.8245551150696144,-45.37422191151005,-14.133681341177365,-5.42105394190455,-36.40260094830248,2.468385766859548
1.886822094273074,-34.279518647907935,6.231240384925869,-49.87941831617147,-83.85047393883913,-32.45604640671155,-10.287530501771258,22.69149288745345,29.161206712230396,5.9875038912568925,-10.019940788298229,-101.1696443000329,-19.5277635391477,-48.618138032748504,-25.68391935745045,-10.072737030361079,-46.24417941180124,-22.128958446121615
4.040109872532271,-71.68718160701462,-20.654571650053185,-48.43518534084575,-99.64345804011349,-29.35042445432994,-29.46475943706399,22.576012357300186,37.64877596151398,-33.944757185584024,-39.047972115689475,-101.39287538559411,-21.428948753287585,-54.20016919365938,-41.91810705219424,-18.335404574905567,-53.74284425345826,-50.039696329499876
-10.615271702695063,-92.10062647936965,-62.65166458592512,-40.03916392656336,-107.22639067098119,-29.26496090647676,-35.360850033362254,4.786711531601192,32.9453527799334,-72.21785065243893,-57.219001923618634,-108.91522689841054,-21.470147281176224,-54.893800631471066,-60.68790183035422,-30.013640336057435,-67.78603804522601,-79.01785505739493
-33.97408769902045,-107.04392313372136,-77.37687165850622,-24.398276114154953,-109.72442705235287,-34.055283472092995,-53.562313573089526,-5.676193623781906,24.620601041226706,-96.62522135147566,-67.56083973627418,-103.22769855887061,-23.65572979549485,-69.93776431714892,-77.89180523880927,-31.532918369704753,-84.66335094846193,-103.10646935533626
-69.25939122748824,-108.41193574449656,-66.00239104560069,-13.231354569170989,-113.9737143119455,-47.530175897784076,-54.47903637257018,-18.578644462663114,19.80274326621037,-104.23779795820835,-68.3160741891754,-104.15394370558298,-25.642314363302887,-87.32031435157073,-85.61966576865905,-35.97927656127137,-94.60958866909422,-116.93452182911199
-77.31076603242516,-94.15430788670233,-49.23198150499128,-9.370386185639795,-112.06407849372263,-44.689389618381384,-59.88887403120086,-15.072866116743292,19.66288271540691,-87.34127764126131,-55.188200699951224,-107.20084598396178,-29.090486364420713,-88.97492375295025,-87.09431297430461,-26.55548516821453,-93.91433161576526,-119.13496364886046
-78.14837591025395,-75.11150380539186,-24.526871919143645,-15.256735477426112,-108.7808494564272,-48.09199634789209,-55.82694699558287,-13.518684158441587,22.05176311615584,-70.25309335283089,-39.5059607949033,-105.3361960806549,-35.9538038350705,-84.27688917151978,-81.92523860615186,-24.062545345444235,-88.24229746306705,-111.17282146764904
-78.51092121336958,-59.975515915625024,-7.9032738130459705,-15.362751356501143,-90.45204171303614,-51.68335058269794,-63.28984419977523,-5.127073661079855,22.47634681231949,-61.66543591883354,-27.129269912916655,-95.43410327913742,-33.1465317408165,-78.79285390956929,-79.48770692094904,-19.125217585097857,-82.37927785475806,-100.5679026700942
-87.77385019516254,-45.133459329098855,-0.33811849482023604,-9.10242556608437,-84.03128718234493,-58.39331937653401,-51.22257639372553,-5.3281303265173605,12.244318454570475,-66.75481311266475,-8.683443076940904,-79.15391585016587,-37.36854418154857,-70.86278689940968,-72.75048025410881,-17.99350194389938,-76.91177467654555,-92.00794086835361
-92.94897725383879,-31.855333636316132,11.937969969299544,-1.0656186759620923,-78.09272340672267,-59.04221030272953,-45.309298462745154,5.018889261402716,9.421589381774652,-66.86923901935805,6.846542804172266,-63.33085276344995,-37.389599457810476,-59.314944075211336,-65.32701298557419,-15.393786392044625,-73.01222877951196,-80.41489622466113
-96.86865906400595,-32.83709102694267,33.02623996299837,10.407895502036993,-66.77697662526737,-69.15773933030248,-33.44061679015018,9.214337178138194,6.4877496679087585,-70.31025823582482,19.06958551444024,-41.51869157248965,-42.09694771513092,-45.41902309347316,-57.315079184062974,-15.329945574762581,-71.46244205343136,-61.39433354056545
-92.89243963695681,-25.324920564621593,44.078359904079285,14.185170573693792,-48.42395344105407,-63.93497574766988,-35.44121554468172,12.238583281170357,7.250694659041486,-66.43380734818075,17.633487202633134,-18.40420423735992,-41.82286535305823,-38.15968123323033,-45.101457106862846,-10.477557758934047,-66.50113928976732,-53.69670240293352
-96.64581564197013,-26.897654084461465,55.54330946517838,17.102275692842174,-44.22546923328754,-58.70631990655872,-26.701503729934398,9.110907586622499,-3.329615962803203,-66.66646514734299,16.600479210145146,2.4977173315208105,-49.84919409665402,-28.845522905452263,-31.420676428281872,-10.406991852622937,-65.35551571735986,-39.93908885077053
-106.7618246672169,-25.93445477085033,57.65490557621569,15.545893169215091,-45.78304176250644,-44.68271009388654,-25.190661494422244,4.909337180924645,-21.15229649737364,-67.59082622863167,22.024852646590737,7.222789386700427,-59.047303896359594,-21.67597227249626,-17.542399034728597,-12.481400966162223,-62.45959312912706,-29.203826749547368
-113.67024165003804,-28.49053198701288,55.49093139626432,16.35207484911644,-42.64737396148139,-36.805915096426865,-28.955686296268773,-3.4913510000048547,-35.28040971509559,-75.55525089365334,27.558360388939263,12.959532828053469,-58.77288150341214,-20.26450507331958,-13.62313949524049,-19.239800282069275,-64.64991637606661,-19.24495231427318
-120.9846238070079,-39.15622377666948,53.44555590453828,21.181003687465953,-38.13890791994046,-50.11536099595278,-27.937979320035165,-15.212412466670493,-52.94134756570304,-87.53294748491838,24.020675924741,30.93933113411302,-61.13586210957166,-24.025312209385234,-16.830931293286092,-29.412555090219342,-78.47004670176344,-25.98084159723463
-133.490408459761,-56.17410943220057,48.29563463550665,23.58726154151564,-30.01159242899186,-62.54053209581322,-32.39174772324958,-29.375102334467428,-78.53041628607667,-103.03621610027034,16.39184045064038,47.39317022066531,-59.8865203030951,-35.009341530972954,-28.63074685931679,-30.792365889004852,-95.52190028859323,-37.88804581595536
-140.2501238788259,-61.087288622318,43.165766815635486,26.988853358255497,-34.08605619566245,-55.819563968869375,-37.33658709814439,-33.28408858090881,-98.37622818447187,-112.20220373063616,13.36288499690238,66.0327545908432,-62.64252388177751,-55.658169795933325,-28.514565505563944,-13.711036660182385,-108.38395948292343,-40.41572636677593
-143.70539575968036,-66.39635817133411,45.184509908322326,30.311519380385644,-29.561273474292175,-44.40593447927099,-51.95246113234354,-36.70531865179109,-114.7255944670346,-118.15652620596606,9.855095266647943,88.42130076392934,-64.13071263526425,-79.23354412445428,-36.30701167127014,17.046280693413955,-123.79506731414546,-46.65018521374685
-138.58287529605542,-64.48441356927597,39.409763315734885,30.820809621922713,-15.265422503110766,-45.58519525232369,-62.469760242495965,-46.67032232825896,-124.55179490255475,-132.52101162491908,8.309399314122622,115.92669128555339,-73.43360743755674,-95.96981962510569,-41.26583562402456,40.678562360615715,-139.509542702708,-47.70473289098664
-130.3515520394249,-58.086263510823244,41.07565968198869,33.20425371853477,-11.999671390829171,-38.94700948073144,-58.43923356706013,-50.28844929236727,-123.16791350329976,-132.34663645392425,5.99086165767865,135.36578614968985,-94.26254634664768,-91.51143556240922,-30.79328910935139,56.89290728753336,-138.53537343667557,-32.15357879199182
-119.6951732205084,-62.046268847078636,45.591802280427466,36.09459281219363,-26.30715665401307,-22.636010219013222,-35.17343237594476,-43.848875526899526,-133.71947536667741,-131.1107021346142,10.906895255804208,153.86823527038425,-120.75840140137375,-68.69059143369267,-1.080819081946089,62.564337141249936,-130.34578218175167,-4.782117287219476
-98.11764547624304,-62.106775889957746,39.3832745166465,41.24960715492054,-27.13278345739178,-18.23468737414308,-12.88762705546609,-22.371224968359172,-126.42149492629186,-126.76291688410465,13.584174942369408,160.00869717325023,-130.85085193233954,-34.63642531474489,23.75001516412634,61.11093922770089,-109.3746866222613,18.002986043224013
-86.3225267854441,-65.00653675993082,36.51229283734476,45.73949693577748,-18.382926674816524,-21.055597966280132,-7.890773695605013,-11.734965869937955,-123.63820371459822,-127.89766963475371,11.092441838118702,171.36615773883213,-129.13013214428966,-9.271237313127447,38.913888155156684,40.423217095718535,-92.51727140323044,35.810934844175044
-85.97010292658707,-73.67564306078992,35.12285499424139,49.75950153820988,-11.092975092105636,-26.41129822361183,-5.3390045271806805,-5.5925105371657065,-122.73343505427762,-131.09743393292166,6.263241769094989,172.80423776302524,-121.16304514557613,6.428275902155434,40.113764323047675,26.185216540401786,-84.85212109748723,45.32120037246756
-84.75559007386343,-82.15732307642446,23.495520307209418,48.036018463036996,-12.684980138902905,-19.946227311147183,-2.4003490037605495,-11.366010804379638,-129.17659739411647,-140.1713423855674,-2.5641371060788316,176.53070250556357,-113.68827814122666,18.223803500134046,37.60361252109609,11.463294861893825,-82.08266348920455,48.096140685130706
-88.53853143197193,-89.96362927009137,13.641672654482917,44.47526441427279,-7.4361080121192416,-8.984841922593276,-5.813290241185067,-16.457779821344865,-141.30806630366226,-141.838409033368,-12.851125080057493,175.61237678361874,-104.45999719851707,27.77541124595829,35.87559601760205,2.116969937796807,-82.6467291525757,46.18640231685308
-86.57664189496606,-103.34498862133732,5.6584457111522966,44.05768294282916,0.7472699888865648,-6.906377870006638,-17.238103941190396,-25.067259962865332,-148.48368689469973,-148.50161922838788,-19.12942117394232,175.9092254345434,-98.75200509675119,29.028205029882557,27.507634817584915,-6.248306535814622,-88.4978131938125,41.642631571842145
-88.24511850566047,-107.8483773801288,-2.114871682120352,37.70099481044613,2.099318665266395,-11.367174048547888,-24.955950425436807,-26.745230384162827,-156.27047029008838,-149.51671703181978,-27.063707373364124,172.34352193764138,-98.90836292349927,26.474328190729103,16.601263254536548,-5.136264714575082,-92.80019983313103,38.56628706905077
-84.26651780668581,-112.36096162260658,-6.749082012596659,31.362204646334643,8.143590519320874,-1.9568866917120875,-30.334122161125364,-36.238164881439914,-167.11036061988523,-145.37241402078172,-28.84189777205571,169.31031561699862,-95.06590457580992,28.90286606955965,12.531534587088743,-6.754079295727509,-93.2104149217836,39.00801466838591
-76.59402452815615,-109.26573904937416,-20.15896898424367,27.28731494489689,10.481459257622298,6.4803844922605585,-35.32585297477552,-42.41323368823414,-171.53103798493456,-144.76065687422903,-32.179487055741895,169.73976429785702,-97.67426406304762,34.1652384764406,7.876371698946599,-5.14458902540376,-92.36551452013781,32.61592703727076
-61.51666276749152,-105.69201562802381,-31.016778465089274,23.620695217706754,16.925483484787755,20.487585579046247,-46.669600834901495,-44.879955922833915,-170.21656733862915,-140.06453442028078,-34.83087999390599,170.5072201097455,-93.35457682227053,35.034664033430815,4.979472392201249,-0.7960472972050505,-90.16812332392142,29.15563114681527
-47.33534719611019,-100.85880970275541,-35.51440623466637,19.09265363978919,17.90514393970765,18.87286511644527,-51.37695504053231,-40.122800391553106,-164.72991281989343,-137.82749241361742,-31.718406144199903,169.65990188379473,-94.1189806275425,36.979868821127326,-3.0929499613147797,5.5103153918507335,-94.33347051655917,25.306596662540475
-37.66340975313902,-102.28603670288226,-37.75402855247127,17.414035481539862,16.740742785057535,17.554313556218293,-46.51824693507907,-41.13039126828582,-153.2159968698633,-137.26863059038863,-38.76080812746341,168.95599606058929,-91.17850440451821,28.770106545252496,-5.110341460787335,14.16515745801285,-98.70937139587203,15.892796105515162
-30.93831121564631,-100.11052335486869,-40.861247419257936,11.943958037756005,20.17060266349268,20.828750907483553,-47.328142318830736,-46.438004391265935,-146.0269383733651,-137.31405987449241,-42.38418966435171,165.75906396001974,-88.3420152788627,29.448531499240758,-11.424507931958678,17.55119857250483,-103.29606406040178,11.168124908355441
-33.41012091895591,-93.74657063134147,-48.742929520861765,14.498844103799655,18.33122982251367,23.617854746470286,-52.63480143103376,-44.522165499339636,-146.87410856678548,-139.13600356785625,-42.00313223186187,166.61246739897314,-86.09800687486853,21.63196201246938,-15.687780812020492,24.945943313070757,-109.55863786143418,1.7572727618721888
-43.2233054048008,-99.3079419148363,-46.750973310385135,8.574364587967814,4.484177479715857,21.526907441614696,-50.42637013960815,-44.17220735454852,-152.53515760632877,-145.85982410688584,-46.60267386289148,164.28979953388304,-93.2358703531427,15.37904247084197,-19.755740905700563,29.025076215211637,-119.84108696254677,-3.160099930449288
-49.44015131871373,-102.63448992590364,-45.43297622926133,7.451794036124262,-7.210245611070906,25.00516846900522,-42.94901916934116,-37.380328438336896,-151.1938328072898,-150.55212103260826,-47.589457100972865,159.27958750295096,-96.669652688475,16.060846786719498,-15.034590041768563,33.10897119381275,-125.84269702646483,-8.95533589714435
-46.689426737826054,-104.41003262368154,-51.23491231427346,6.931664549141367,-6.107410330874604,18.13430807387717,-40.847479716823315,-34.88901032061536,-141.97152652608364,-156.82651419811916,-50.72580974850042,154.12114334590194,-95.81358119917675,12.056003121898868,-14.219916644334432,34.26790242720471,-128.54022425091568,-14.55436680582806
-37.998455950911605,-101.02143611684473,-50.68057795394424,4.669998477217717,-3.4380224768587624,7.457277344984298,-42.65691805500745,-28.299814453528892,-132.09520158305412,-148.2767711750879,-53.6684643676146,149.00996558111672,-92.91394729394159,7.075405858009525,-17.01882897380303,35.91989276934895,-126.85959758582486,-17.80888890840632
-36.74627458686693,-93.64078449678236,-57.44262230485397,1.44785919024919,-6.917110461613035,-1.166576188923763,-45.34997151181129,-23.08169831436893,-134.45594767793912,-143.26279957427292,-55.441358817027265,146.7782838708334,-98.71325544110461,1.4119294774803368,-17.669601150801956,38.455570637730105,-128.32061250872096,-22.62537801067444
-25.159090390906016,-92.91295138669886,-57.06826605335823,-2.0513541968442937,-9.806358553980665,-3.3427704674388234,-36.42647157191705,-18.941809620987662,-140.75310280170683,-129.47996128798025,-48.72067453546564,141.76207659719907,-99.53956480388773,-2.883711219051319,-11.777715002610517,45.683580811242464,-120.03258233137043,-17.67570206445741
-12.514296691124557,-91.70909048701745,-61.9606088055812,-4.55830249236498,4.3983214566765305,-2.9777306935498826,-33.26951321502763,-17.442790052223174,-151.67049491970084,-115.52235945101665,-42.97972072038344,139.43027661487235,-96.07661215855235,-0.7334104993958697,-1.9800090313412149,49.498319185178545,-107.85509215098452,-12.237511744702338
1.3835220625063869,-84.46286818802255,-59.62002651776264,-4.8036527175976715,11.47773846991749,4.5183419854449,-36.85568616128694,-15.264391173163446,-148.16506638126802,-95.72605218878691,-41.44170743225358,137.82980064129788,-96.52777018890794,11.183099025564022,1.860006062590358,47.360668221675,-93.05779913957304,-14.123591128221364
15.557896266973842,-76.93623766915454,-58.933940038677775,-4.643125640474906,23.150747943876574,5.082618734425187,-38.49345902051911,-14.848168109561112,-136.3894344250617,-83.47034223066188,-40.20082572101474,135.10519529527735,-87.12341008989871,15.580302547557828,2.281353103022468,44.153493987545644,-84.82062348980163,-5.658053573375615
29.52065239001773,-69.6176231802569,-59.51228443560987,-7.885602743871765,24.57329806783867,8.578417746070981,-36.327337463370924,-16.487202599740762,-121.6172746349855,-76.41162167141464,-39.64820301985095,130.18224135640952,-76.65283121744572,12.65342170835643,2.799632795439713,41.53695246444957,-77.08886423352244,-7.251530507444969
35.26397792051293,-63.972015533597556,-65.06661913602728,-9.648432401463033,13.108552461328536,14.224364247356903,-30.06434634943448,-18.814391702015293,-118.00909505822602,-72.59689936669805,-38.71009628376021,125.89300155799563,-75.46784712530769,7.773539337307966,3.024136673577363,43.12434977165654,-76.3079976936224,-6.7946252657022965
