Fp1||F7,F7||T7,T7||P7,P7||O1,Fp2||F8,F8||T8,T8||P8,P8||O2,Fp1||F3,F3||C3,C3||P3,P3||O1,Fp2||F4,F4||C4,C4||P4,P4||O2,Fz||Cz,Cz||Pz
7.617771017796832,5.252413350620952,10.301248761559272,-13.5895774711521,12.23454863152903,10.951834939642701,1.7624693032492935,-2.2999744851367794,-8.745155287437,7.560443171507762,6.700892577372045,4.065675197144238,-15.153907430438183,20.44567747093079,14.66941783770357,2.687690511174818,19.89668913013985,7.995178830995865
-3.210853634894498,18.424421327820134,39.115904498437345,-43.686708025895456,-3.7565637504561202,54.06997514940517,-11.346115088550732,-49.44331836333508,-41.72574536322604,17.994609787266807,29.23257411623092,5.141325624957894,-41.62381419265132,29.192484628803722,33.348064197700985,-31.392756686700352,34.091662410211335,22.344301856233685
9.107786120333326,22.321494850466102,34.82455345282284,-37.75716430757802,9.650446151941114,49.825116770499946,-5.51047560737968,-40.53052580104293,-25.68256281444934,18.56511153179324,29.888510386461647,5.725611012000858,-37.334812165333815,42.825777289973075,31.22707669129644,-23.28348030182439,39.20582649879604,22.142338624330485
12.151274042164243,23.389049137547605,42.25229383496871,-41.79781517385329,5.57987475292853,58.765176209980226,-6.707639982309793,-49.000484841440795,-26.925195623386116,20.600153305377937,32.204386205392844,10.115457953204979,-38.127219363937286,44.645935800413746,32.72096666221421,-30.602756959436682,39.24299094193302,23.991230643468796
16.07596652917444,22.017717895940724,42.16074590447002,-41.64835598968781,6.004722678042436,56.96412255363147,-1.0702771684190342,-42.04046255879072,-20.35558527372246,18.04486212456915,32.17640336784526,8.74039412096812,-32.77031993430958,48.32489425675705,32.16565952262063,-27.862128340505322,38.40227915298317,22.226953677463477
18.24505395126789,20.941918927462915,43.436958470008946,-42.97299760549602,5.749136155409433,66.78569141745862,-1.8799070012885277,-44.45579275857757,-17.204350812187553,18.223475351366037,32.92977822446173,5.7020309793666435,-30.639178052037664,45.26861861883394,40.987183116127035,-29.417495869820094,40.492182083753946,27.201351734096427
19.146772284997855,18.01318131846699,44.32328587160447,-38.74043870419279,11.844476240770362,59.22564462659237,10.590267808266983,-38.47303435182556,-12.10029365878333,13.518596142502217,35.92954490504709,5.394953381874127,-34.663443894948855,48.56308982903416,50.103437647492015,-20.815729257669375,41.60622783444047,29.930034993811667
10.773132032992114,15.57528845776016,45.89415594633548,-45.06425625450748,13.93902350593771,58.69852521499317,0.4997914475436662,-40.889585831169015,-22.23115137260161,4.906708916420902,36.78127233554585,7.721490302979209,-34.003023131159,32.2311895128034,53.75268416760572,-19.733096211838408,28.169826979783277,32.65925233753657
8.456341508751256,10.796161731840376,45.02471257438423,-42.51060351899556,19.74773766153978,50.65343509807255,-2.2681316660980766,-42.72120164070389,-18.201917607645555,-5.659124280615519,35.68044228322707,9.94721190077894,-24.751517834212716,20.980163242973536,45.684892608227734,-16.501698564069713,12.683005597251412,30.994524771504565
7.215796997475172,11.390756660129309,51.09028908853473,-51.392327541764374,13.352402472478946,50.91103042832005,-7.576996155170031,-45.53067129237074,-22.571501890875634,-9.780430227409099,39.463261757591184,11.193185564833744,-31.518587066571893,18.8138125839023,41.62302192421073,-17.762481988172233,6.47389591322797,34.11579751263444
13.985137007556695,9.35113077380754,49.44241331796001,-43.291056432803956,22.487808671414513,50.97518698700567,-4.977485416384241,-48.634655201602385,-17.370849692667978,-8.629193810315106,43.05169224990205,12.435975919367532,-25.69041840303608,17.72403405678584,48.012543169897846,-20.195303783101245,12.765036903922685,35.57777557045661
16.65473865453302,16.4938610053547,54.43696034964448,-47.40647823917564,33.67717773949371,45.47482504438141,-4.235433698427061,-49.494315451171936,-14.12354209258144,-2.5961374687223344,45.664634470385415,11.23412686104203,-26.407831260445196,25.230301957417584,50.88845705446151,-24.288674117042902,21.790487443169916,37.7243586723764
12.099489091218876,12.79909913666396,53.76924052598286,-44.30471954399777,32.467150809160316,47.20320123343664,-8.280632004602092,-46.547390068448564,-21.911714744385044,1.5802638733096366,42.61467805940304,12.079882021308388,-25.662790243484512,25.41423014408592,47.321086207907385,-22.230196138845614,19.09673437195045,41.14160522665518
15.651586314147409,17.99369530506027,42.36123516082416,-37.59912660851181,33.897003558262355,44.92976471306219,-10.66772677152264,-39.305850589062466,-17.395131647887787,8.880464829977765,37.32000351653276,9.602053472666476,-26.77555479766749,22.670239727690454,55.37716462683107,-22.418658645995794,22.06668747118669,40.26313392198019
18.033475778340346,16.745369044130882,37.986834860757995,-32.953851132184155,33.66977611767447,43.0491995780024,-11.201458215020416,-31.87158053568369,-13.65989194519791,10.02689077349634,31.831581308415295,11.613248414101745,-33.359354617748096,22.9552730779253,60.70105378077171,-16.651035295855525,23.864136786733468,37.9211269222422
11.823097994147934,17.06203787723077,32.833600326024694,-34.275198286486045,31.687788428797585,29.061397316253448,-7.2451213831908206,-28.834750175605933,-15.881815899927219,7.070265847623533,27.80974918038853,8.445338782604217,-33.40217805510172,18.847159700031735,52.84342191740575,-13.61908937595921,23.21936354082881,30.307037807774464
15.380034883776542,12.40061413758109,35.593248269822105,-43.12568018175416,26.486149046896216,34.21691336844141,-11.982563489783333,-28.340116822877064,-15.17400727442628,3.4285235719197313,25.547634673450517,6.446066138254661,-29.54067161705448,23.33419444591223,42.05837535172343,-15.471516077780173,22.47598550316883,22.889803149006603
15.227443125183317,11.940904408844137,20.386653253679953,-39.19246775513635,26.756368475810312,40.937429418034185,-14.476168126996015,-36.34505475805986,-14.95444317675733,-2.1679729468508544,20.943765105444278,4.541184050509401,-17.868410419681492,29.48249096473511,25.025591674368318,-19.76709721050814,19.68068021845778,16.548443345473093
14.880924250570251,7.089004658366058,15.730048889492881,-36.1476180538248,20.877144249632902,37.89471877950096,-16.87445419025143,-38.59178367476547,-10.242533164074104,-11.086517126905417,16.635049878614495,6.246360156745261,-18.209797700353647,37.29186037401381,9.167097054011531,-24.943534563428287,13.66138767735484,10.306479294955212
12.191928966442187,2.141830644539498,7.853865044019184,-39.752903647686466,27.50107033577227,34.17101867614524,-18.29854868976326,-47.287768339429576,-13.245447175031678,-17.467728299305282,13.207583804247857,-0.059687322819218736,-5.954962276131795,35.33615625190464,-1.9037370270641105,-31.391684965856467,6.468754008275052,5.042926469120271
13.019840808509217,-1.4357782395299363,-1.6792055322453852,-38.28935403635663,16.940156339946206,35.23522613170366,-18.943811773940965,-50.323693600264384,-12.537180170784682,-21.507004265910425,10.368539926054726,-4.708852489203664,-9.522183282283484,30.939516484928124,-3.2063335237503523,-35.30312258132117,-4.045856580965598,5.836080630923086
9.551957869400233,-5.792320879642782,-3.298537765215297,-33.51475922237458,15.95258269721355,33.274781670427615,-15.587580624119724,-53.0709770566624,-20.324898384071187,-24.76694967397924,15.051761897179247,-3.0135738371811334,-6.352397007740429,29.082291549939285,-7.631484610853942,-34.529603244356416,-11.144224429648041,6.43593710912185
12.042258385195721,-6.533229457990677,-3.058747418833793,-32.75339271733498,19.167130392915745,28.778029869422856,-14.479991097799601,-50.64697075962509,-23.22943831403302,-19.239709025351626,12.218099627319468,-0.05206349711699021,2.48028955306064,21.951666478498915,-9.515014586045126,-32.098743040470275,-11.701464965884043,9.577000705508379
21.36957580049429,-3.756194081019066,-7.60039916128199,-32.5871689041266,14.08356246945151,35.41710635473409,-12.691349310800572,-51.93876519649836,-18.90695930647014,-18.206812469388126,16.028065067001116,-1.4884796372931528,1.3507684456702513,19.508533686364405,-8.368610698999913,-27.620137116017084,-11.577204218661386,15.747645538792634
19.857771242189244,-6.152787858265167,-4.520800845086459,-34.383223692093104,18.866169495174567,32.879249310641995,-9.245113965271464,-49.13397428936092,-24.740482458382434,-18.640945763183865,17.204310227147587,0.978076840947846,4.224229210040058,17.260438899699526,-3.996936121223598,-24.12140143720007,-14.091965287541555,19.576778621076052
16.686582734046283,-9.230790845514484,-6.710617579068716,-36.2859798061047,16.913083710252263,30.344330573388504,-9.414836871090126,-48.38526573154502,-26.667234821890716,-25.425069744165462,16.821205224633694,-0.26970615543293164,1.1397171958611487,12.277450715025012,-2.9430407736160653,-21.01681545613197,-16.31617402583538,17.939432253378435
11.953576879331619,-9.572220100447797,-4.7945523307655815,-35.65859027783828,10.177405185052342,30.937438231211498,-8.415320300653937,-39.43880374842084,-26.24968019269378,-32.309160925572534,17.710957110927936,2.7760981774061295,-8.879208098940428,13.055592534759594,3.8752611854468473,-14.79092625394366,-19.81251026708697,19.1365915658474
5.756318751304654,-9.325585725870308,0.8369152567704123,-45.09880782390882,4.420883105295417,32.41248082296077,-6.246593450274219,-33.52545222588317,-27.39406649791549,-38.70734272768311,18.408829947932006,-0.13858026424808312,-12.06266644808863,7.094473026286227,9.328968094003875,-7.299456419968582,-22.237341987494155,18.383101713799803
5.028413763901769,-9.955795499427674,6.57059740195655,-44.684349921253336,2.3778740115514303,34.18354465268969,0.7046532494935995,-23.4187589580198,-26.389336354227005,-40.127426877265655,18.524320483816247,4.951308492644667,-12.21916897141053,10.99570700140318,17.519715784524564,-2.448940858667367,-21.930638910457404,23.78462672957556
-3.2187130628074723,-4.3338779229243976,10.6488006190063,-42.618355445131215,0.14200546559402838,34.00453065646794,3.6491987872220033,-13.122908622387001,-31.63399063396654,-39.987499904338755,20.49899744759034,11.600347278650657,-1.7312694034158689,2.688443950712294,19.267684828960263,4.447966910776099,-31.295082727840416,26.454381019167563
-0.2348725040553532,-0.8584440391272734,15.610769168773427,-43.783592365266124,-2.9703921427407067,34.121592069768056,9.618378505946609,-8.888210667269057,-26.428489536245117,-38.09230975363588,20.13370073171297,15.120958818286757,-8.138306231292319,6.586917637569346,23.75270836577381,9.680047993790833,-33.14305708493457,30.10342460795098
12.710286661953955,4.376768503692248,19.796461615348186,-45.347859469907476,9.251798077365203,29.554205656714508,13.924601419169282,-7.687485960500684,-17.901780466584505,-29.754346079612315,23.092699455809324,16.09908440127005,-10.346061749433247,12.534521977431725,28.240372682249497,14.61428628263809,-24.056684034610196,33.95055860514878
19.698453428117947,4.828641994319865,22.131780043884646,-43.697685955570606,13.272990290980273,24.794645327027222,10.708386181958993,-4.7357127689146346,-15.917226242935868,-26.985569821180718,24.004935561581636,21.85905001308412,-8.842677314639992,6.858972598173441,29.019684139714876,17.004329607942317,-24.54422885031802,34.28484904064353
21.706104690794092,0.9854141381791637,22.421543235335438,-44.30176323055966,22.17924878051718,15.936615750771946,2.899450622999942,-6.0878752273962675,-19.498179297762373,-30.860272714808826,27.94872663262352,23.22102421349581,-1.1865606682756322,-10.7329039181489,28.62974197862749,18.217162534829725,-35.09411680841395,36.47752890317747
19.905031755893038,-0.21926838837702345,24.08390334872753,-39.640295702736275,19.954628888476503,13.527163617241815,1.9237385641961726,-6.372998580085309,-16.144377583037794,-33.95652077745882,30.236613679942206,23.993655693862657,-0.951987621895185,-20.221470286346197,27.16819948679669,23.037790911414884,-40.56953134539261,34.571530459561174
8.338009901832567,8.831843389463394,27.607277294866954,-35.18195972516216,21.540687261980732,11.804489562760857,0.7498835842138014,-6.763173360196948,-19.23485913345014,-32.85634503050514,31.552310863213478,30.134064161545556,4.459041582676683,-33.42351155298108,30.49451421773909,25.801842801465966,-46.830066467430186,39.40691443039693
6.5364836632498875,11.927507966453394,26.93701031922691,-30.340644346930784,24.398242806960795,16.139773225323154,-9.411317374760701,-9.504721937861678,-23.496032657011718,-28.73168793345549,31.11466368677861,36.17341450549317,9.577845889680887,-47.50715059298888,32.84687029888671,26.704411124226354,-52.703955195485456,42.97579486290353
12.351878424791131,19.41938726618455,24.221694736306855,-29.413118295183395,32.6288385700326,9.442910715762583,-11.176790283939265,-11.570445408167217,-23.45899051926928,-9.961325638985699,28.435488334282173,31.564669955879406,13.623316781143831,-56.9060922139668,34.420571715874665,28.18671731078188,-51.55059328128717,45.0829022204367
19.63165146985922,24.95966775854466,22.48883939821972,-25.27018746612128,42.326080790305866,27.066001386217387,-28.570340161216105,-18.42936494952191,-19.31897325394847,3.3372024976147685,25.468041970490326,32.323699946155585,25.873093884940744,-61.13224218195765,30.723348703355317,26.92817665959318,-52.06163774069383,49.82990477772911
29.449932182689324,28.157656173773315,13.632967642188705,-23.18518362003289,47.33744564617152,34.145226300882946,-46.74798863609639,-21.29246837227675,-15.27518808754563,8.722410417716617,24.751525703938285,29.85662434432163,28.65128136478095,-61.553001621332655,24.782575335245348,21.56135986013568,-49.25665792706712,48.32998866583804
35.5565188569154,23.349139392388825,9.47077864442807,-25.20872606650078,47.56518725299111,28.82507965188367,-51.64701640896135,-24.066246400926758,-7.128276053229449,4.534076301763374,19.938283824915462,25.82362675359731,31.430835863277153,-66.3718115980374,18.06309977159968,17.554880058296995,-51.63198719566468,44.977790028930684
36.48643856654439,17.6630663817296,4.533548421295869,-34.7586355641518,49.06399549782904,16.574383196962707,-58.990312041576324,-19.914835048385115,-14.019077651552474,2.100460072626806,13.372197067579961,22.470838316581855,33.13767871939293,-73.34273296412562,8.904720502489052,18.033565347225586,-58.89475806899274,44.265600175250185
29.700482857346444,8.755583460378382,-1.5692476816050913,-35.2328893491823,41.67737365198958,17.022328169246133,-62.13713870118781,-23.68238535407498,-25.693453294386988,-0.7269441952872953,9.057325362093781,19.0170014143391,30.842234757838362,-73.57909808611014,0.43246339054213934,15.184577703856153,-63.134795046828756,40.23632972211242
20.08143124558786,9.419784833971061,-4.735881430884078,-36.982994267242134,34.780371376316644,12.297530849385677,-62.74766455343815,-24.626717173457408,-26.62374524122339,-9.80763427456706,5.528892850759149,18.68482704628842,22.49384893659571,-72.1592938918482,-5.107567162114272,14.476532616329136,-66.30535003126329,34.55019061152004
6.359625452324144,8.620274304347056,-10.239770804764774,-43.23143559700776,22.025140655374003,8.064120262493741,-61.993766151595366,-17.767453784211774,-37.80629050429574,-13.227396966377064,-1.9982417795531262,14.540622604952391,10.045833961627501,-71.62260368003977,-11.133417383636555,23.0382280842671,-64.79317933762368,27.890815077229384
4.25785393580604,11.630496493951249,-16.030006429167067,-41.966084758400974,12.298439554545553,5.884597832532641,-60.26605523104404,-16.776843611060894,-37.07270502590799,-12.060496256963503,-9.227052248386947,16.25251277327907,-3.4742619811297977,-65.91442714033275,-10.320783691702097,20.849611358297622,-54.10611518747203,18.988678351155713
3.326630873790217,18.841007265312626,-12.536036098430536,-42.65950975289582,12.240896875366108,6.442542923289487,-60.88487286294763,-15.89324160280858,-43.7591445157514,3.458815261899854,-10.29799062015357,17.57041216161678,-10.741949860712817,-59.42953960476852,-11.16591791474466,23.242732713287168,-49.576506598124666,15.265792453661625
-1.512353645446236,23.70866121011377,-12.355617780607908,-41.600477571178914,3.1021278879997034,1.2417050449906455,-54.865682034423756,-13.456624641257072,-52.98264548188052,16.04509320279942,-11.070439911120477,16.248204402921406,-22.206449129931656,-54.60955898965444,-8.785962895671425,21.62349727273078,-48.27470072185491,12.229923145389531
-5.083346488747104,29.358427507793387,-8.457306843762598,-35.76135345894451,-0.6646214365458221,0.14548669335842845,-50.0210742649704,-8.881201636118835,-49.70383996374258,21.69434804267309,-10.665401152651405,18.73131378990326,-32.789398395712325,-46.08348134096268,-4.05986946646339,23.51133855902742,-43.16941517165462,10.076405876639019
-7.874742992858899,31.590943180399243,-2.5012007046846954,-30.610720303128314,-5.1142313517245945,0.028808885952976482,-41.565789892429876,-6.268749952657803,-33.53202169008137,17.965116289428373,-12.989106679104545,19.160291259332254,-32.23657593405778,-35.70697278246585,-6.9487595223735354,21.972345928205424,-49.78830109601363,6.559130886563871
-7.445205704630947,30.79675743365369,0.9228678285221861,-28.003819038407226,-10.832749306460585,4.114343831166099,-36.140522226763146,-3.861579521931972,-9.154687717983272,4.369091428256775,-17.064903807950046,18.121100616665938,-39.9817129844447,-23.968488361817474,-7.003288411266265,24.23298253370825,-49.08816522513101,4.900820286523221
-7.701149567550857,31.077412045832467,-2.9702527320927885,-26.182548838743042,-9.909999848898345,1.4643896208781157,-33.06163153367314,1.8558420260623123,5.459211213780073,-3.468503769138403,-17.61920123708198,9.851954699742222,-46.747165217854,-19.755046052517446,2.5148933393279336,24.335918195583588,-58.15917376927101,6.859328644479586
-13.525566088855317,30.382009670401423,-6.758499570051672,-27.685744267163038,-13.088436234141668,-2.1592837635562248,-32.8173685263454,7.563008181508636,12.360559884038565,-4.6687631365148246,-23.050493189857605,-2.22910381347409,-46.185020620367574,-24.141041886781416,7.152404623416034,22.67157754137108,-57.86046702437311,-1.62804467950248
-20.230987281044293,28.417490850644,-10.637116826602284,-25.38411864079017,-23.297892697621386,-3.8269823566639083,-22.712186672957948,8.08391825265867,18.873759637242166,-11.438915537413768,-32.67510592580858,-2.594470071947285,-38.39277822538,-24.91941650987593,0.5614558835878647,20.997595377257866,-54.832824420038726,-14.994795725754528
-22.934628593994788,23.914217365824392,-8.06296781510067,-24.941544473665182,-22.960078090605947,-7.249739951758084,-21.301014075132947,13.770155061723678,28.51455835969977,-30.224381025194006,-28.230974315954136,-2.08412653561788,-34.50326199662571,-15.840229994854088,-5.636719049555506,18.23953398543796,-43.021514976527946,-28.2603680062498
-25.054612188915897,17.36038903154047,0.47572360330316243,-21.572511540381967,-15.68843077641938,-5.786871194614413,-16.181273121234618,16.80896454940472,21.556160003546424,-34.07163039223616,-10.499294367427446,-5.776246338462251,-27.484956632411887,-4.618596546215173,-4.801431804282178,16.057374440223057,-31.899384288509424,-25.897169992346107
-32.84113337650735,6.705103215924579,1.013962152862927,-16.155654221243587,-16.03405577684108,-5.9814868356139925,-13.50535486402335,16.418952685233357,18.99504419326616,-30.69563005865605,-17.664178347691575,-11.912958016002257,-25.247981586945045,2.2022652050167437,-8.553992040846946,12.497763631709207,-28.40017269401542,-21.479617477744355
-32.524549315377506,-9.418939648649374,-8.303690959249312,-4.5890580544861805,-12.180467904279826,-15.450933832408534,-7.21843100870505,13.967198417899883,29.620470890786166,-32.40125812671214,-32.83077485630179,-19.224675885649898,-19.58892982785348,3.3526572674259896,-11.718578656537847,7.0722168896523225,-27.543372325205272,-24.38284406227227
-30.74568332624367,-29.44930795209921,-18.39501094427866,-8.747763591974966,-12.135702716556008,-10.659740985489506,-18.805154284916796,8.28168210906355,39.272128805635475,-42.21590530477228,-51.311451768503865,-33.082537547066075,-15.683505486141216,0.7855897250495403,-19.373433720359124,0.9524336037340619,-31.77045976778542,-32.556028257992814
-22.621743769681288,-33.073284913130976,-27.209133638107552,-12.615604583335518,-16.583464630783816,-17.780227656493715,-13.79229076653953,8.542107195366803,50.39151998216181,-45.49090928624001,-63.53569170424714,-36.884685896035144,-12.945606922332695,2.313539699587956,-24.0966089389256,-4.885199696596377,-32.975871994206756,-40.23735484203261
-18.99283345462212,-23.806643190902683,-31.425647612269124,-19.41498619457073,-19.0784422792127,-18.25746893973945,-11.32070444891022,11.818619923006224,51.845717934364174,-40.17545423129037,-70.18704175065287,-35.123332404885716,-8.543005509247035,2.858165222499565,-24.71625168429692,-6.436903773626668,-26.472063328801216,-46.15726491615503
-16.929312032309724,-17.079400503745607,-25.38035905901679,-21.821274505452187,-19.523076527094414,-9.357094437108362,-16.175570256571344,11.275059488303263,52.61928784002748,-35.058731491626126,-62.86688092595975,-35.90402152306101,-6.9678043069235756,10.72023731156903,-27.189524580349442,-10.343590156580227,-17.23960094851384,-47.581333653368304
-19.165686205108408,-12.305705870664553,-18.350711827663506,-22.080291220844696,-18.30809594656078,-19.302237871650824,-4.137713169862796,12.868431572584633,48.70831248990934,-27.30865943470843,-58.07931377208085,-35.22273440749133,-3.727595603531304,13.399430902221965,-26.926554467594663,-11.624896246397478,-9.86841778673265,-48.02523167247201
-18.573028970123914,-2.161324850835209,-8.481170844920703,-22.340197643495436,-19.144591166742845,-15.084630291944492,-3.3325059108257093,16.891595429436833,46.16761882765366,-14.97207424615845,-46.83977648096755,-35.91149040998801,-0.5800685231892189,10.114352294865157,-20.411703415026405,-9.792712296535752,-2.210059567732735,-45.9264270950721
-17.592869836656863,10.228598261845512,0.12667331830645878,-19.866265658195218,-18.71229430923057,-17.017129153745216,6.845891947988662,22.465519907254098,46.462116807126776,-3.2248253705210423,-33.93344848187421,-36.407706869511706,1.4983481164369294,13.072089759672274,-13.992765273476524,-6.995684210173959,6.907353575037703,-39.33175699546083
-12.41664085752764,18.906844237325018,9.914295138512026,-17.2949407020099,-14.374540353338588,-20.216895150542598,16.143475616458915,30.078384672167203,53.498156571341,6.272918086540113,-20.23920153967798,-40.42231530197867,-1.3985084695730734,22.370174306265234,-4.056444373452431,-5.284796678301243,20.706516893831562,-31.56157626195224
-16.618849680375618,25.435839431637476,19.319198156535546,-15.797800214801164,-14.13935652857499,-13.64865144644077,18.700839123064625,30.2572823352089,51.65053682069863,11.079726711524955,-6.9288826541863315,-43.46299318511105,0.20230742101417398,20.723061704392798,3.6354119771417146,-3.390667619095533,24.245788668189675,-27.401105674241748
-15.550914844143769,28.545935401574074,23.653834590852917,-12.249479439728923,-17.420887409381947,-13.914261673733481,14.51804126443023,38.52968941029838,53.32182417080378,11.97687804710457,1.3099804346446806,-42.20930694406379,-1.8046537953164083,15.161987514744837,13.08673060725354,-4.731482734871573,25.240125435055205,-22.16276495907027
-16.537244155205027,26.96748344180959,34.34418009901158,-13.192728531473389,-16.211287702430415,-15.349624635144849,25.568132578412786,34.38737872177946,48.74627464233475,12.968356511156408,11.704102103444884,-41.837042402853406,-5.95438537820059,13.108820750324064,23.418551507918707,-2.178387917226165,26.423941385089606,-12.330866423754742
-11.569977902444492,21.969935906612537,35.17906615334139,-6.810641408120119,-17.249029167204757,-5.454597162380267,33.1008860287449,29.3538642824389,46.8107689716041,11.515079303794074,19.468292424212404,-39.025757950276486,-6.582600120272527,16.418941727334264,27.599477257449077,2.3153051172888306,21.840114097770083,-1.8117102893178734
-12.954063959425543,19.119685616018806,39.43995798553046,-2.282725301748748,-24.0498763430576,-10.40150094050431,38.874199930320295,32.80419225348966,41.36289220631603,9.86319418682833,28.704213467131925,-36.60744551995165,-6.716552195333975,15.521777659870125,27.68028053289773,0.7415089030168547,17.836398536896183,2.753986867574345
-5.747938291438186,9.920410798844292,32.3805456148942,3.8093615724092444,-23.72309154686607,-5.873605683454274,32.927043567119604,24.32780050116935,40.01996700088084,6.54785601760344,32.868831188260344,-39.07427451208055,-4.988900130579635,19.206413408689002,21.51245150536475,-8.07181794530107,16.56126883798362,3.026416779026813
-2.842490351290973,7.067519376692609,25.426789602983185,7.657288489398823,-20.663355141543168,-0.8554700976216463,40.25985684907775,12.127847222551773,34.57875831871773,11.725491879129063,35.673171738899676,-44.668314819003456,2.7997691991207994,28.15634391346201,12.611629653481508,-12.698863933393465,19.96788552958671,6.720551490367447
9.824929178921458,-5.5526138895421,12.328595716284301,23.324091151458404,-20.241922858084546,7.875565096773189,37.53249785169775,4.50515085386974,35.48865567493553,14.360800323951697,33.796901386408955,-43.721355228209944,11.864353861278335,37.97686415087361,-1.6589827287452845,-18.510944338942704,19.071743997942647,4.656574455237293
9.30468863593817,-4.89286016300146,10.273723516390577,28.73944111339015,-16.89238142865335,4.401242654054944,36.073321820102,6.147195978905087,36.10894022777893,17.090564536440766,33.19716904958017,-42.971680711113464,26.99020733866339,44.56624486091724,-19.639242268351094,-22.187830906611396,22.759707711928456,1.5220687077656079
8.780522778337037,2.796587732910929,5.687740579834264,25.173209251800778,-9.345255982867084,7.374145952343879,31.19481393110665,1.135686581703144,34.193487599542166,19.133547743732905,35.436522618686794,-46.32549761910515,44.17348323078429,49.68222375977845,-35.37206444266897,-28.124252065396202,27.418450928061873,-7.761156221690381
13.428234283839156,9.800671355307603,9.508303417197979,18.28986390694829,-7.854682756790664,16.20828425069319,26.31505100967405,-6.23251853665235,37.261943582409,25.37266298699479,35.04614991868684,-46.653683524819215,55.89465307227838,58.4029043291839,-53.93568871123732,-31.92573472308826,33.145643446306046,-15.771099524944404
12.993705540654446,5.669916121139535,13.239174413644715,11.117113326561196,-6.1706376151599756,20.747209037931544,30.418600195025554,-16.34812945385772,30.275012158445243,21.54990706824355,39.05742669145562,-47.862436516161466,63.521039187556426,63.5015174367356,-59.216624204295115,-39.15889025584357,30.175524628706818,-14.890444343814242
16.656711921232272,9.056854694090955,13.950603309541833,13.128075237476605,-8.883103234886388,26.06908010526135,29.345143256500506,-17.00400508240791,28.369635188195335,23.4858615267606,40.243695759873006,-39.30694731249957,65.0019392993643,66.63815099966821,-59.808787529964,-42.30418772438557,32.27785043075133,-15.959186108486556
19.92494792203502,7.265885941449338,23.16618156041124,10.6509813263749,-9.351419780261157,23.18934358520997,32.762849523566466,-18.551939581657614,31.155170046710957,20.73117653017181,43.68317231570678,-34.56152214232674,67.27115940396538,52.87107987461795,-54.14968949694295,-37.943716034565895,34.569749571774544,-21.516411713903103
19.087372754050044,3.5196212656898336,30.827136235844275,6.420561742049273,-14.0210621458851,20.408866621106505,25.925452186895455,-19.82011101414188,29.354115981002284,20.512553893055543,43.90703270565187,-33.91901058207942,59.977081564455965,35.09103769993249,-45.657384800236166,-36.91758881595909,37.14889656584992,-26.972192379188474
11.214210396310925,7.193110696556364,36.05451817718305,1.3160474380817782,-20.450648375732875,19.58310660311915,24.848871413001792,-19.73435239043661,24.3336621724707,20.583895279311125,41.40357250219539,-30.54324324584381,47.90503354136759,37.51705890406666,-45.75786194187591,-35.417253253387386,39.33170497807192,-32.8148011467439
7.145429091646481,2.4657084139019556,41.485053088470686,4.419917157849913,-23.75735046509113,15.829138042520878,22.990088170973635,-19.759595144940775,21.17198822811754,18.992076181701833,39.10252785521868,-23.75048451316336,44.629535601772574,40.226882409808205,-50.25187010535073,-39.302267302546745,46.098738205816026,-40.509087782990285
9.517749876184077,8.868871742460694,44.48194494943324,0.30255424016513643,-24.82014448825646,15.201703636073097,24.646091308501244,-20.18887498711238,18.79483247361984,29.409211093876586,35.441375947980774,-20.474298707224044,35.01372823667924,44.880610860415935,-44.19780616142949,-40.85775746623828,52.27415551655133,-38.531421931054766
3.5848190698265237,12.73042768425446,46.99830780274773,7.421574975402798,-27.740709315118174,21.607077190814536,20.34412699097293,-13.209632332393685,7.924679462914767,34.15928047845687,38.428049591930154,-9.77688000105594,27.84689403764021,41.614736834031945,-30.03714383739817,-38.42362449977527,53.26806341244891,-32.74125029359611
-1.4735675794035168,14.343261516943524,53.03806455249328,15.0349282296552,-24.901792335022936,17.955119884523782,20.924249969263883,-9.85724856549055,-0.012548883670813638,35.5861020601255,40.0546093337247,5.314524209527757,19.027489615562242,36.288652472756,-17.53568650184415,-33.6601266329756,52.69381932054325,-29.876938556802994
-4.680861333990242,16.734676791036293,59.96440814356535,12.888848201822256,-19.623805139479018,15.574096887092502,14.960548843505237,-6.225467941047638,-3.942654583188002,38.084306626212125,39.93041660058681,10.835003158845666,11.485324547914848,26.36318780766518,-6.693462668054009,-26.469677037229435,47.23108184137905,-24.176661006682473
-10.041054974573559,18.92801137602876,68.55854885839452,7.429039043222399,-14.738867901852823,8.702170570845869,6.164060505186418,-3.876865264444895,-11.775955165832855,37.35698660458728,44.98916052004877,14.304352344296127,13.130748800727416,9.494492038879578,-1.61212512797424,-24.762617801671514,40.200236609686286,-23.648332648986354
-20.87453380434098,21.216155546764256,79.99232444690118,3.245703990018363,-11.71188969712302,4.956615552587001,3.128707395455292,-8.182664303470814,-18.141318860640638,32.23228262130998,49.07839027979651,20.410296138908357,15.662923087879179,-5.723614894121193,0.2474004246293262,-21.995939670711017,26.034815604568987,-15.694084709332651
-35.13050405616001,24.575605665120477,80.20296179189143,3.4641760848491696,-12.105434589274962,1.9936189221649823,-2.934667270695231,-10.35371359847872,-23.820054821572043,23.589148367828933,51.416828071955806,21.92631786752394,14.491997832341381,-18.314612778864625,-0.8219389991012314,-18.755642590430476,10.887280320900741,-13.302375753448963
-34.05869497311846,19.435824190707194,77.39364922500704,-8.321763986073355,-17.872694840553702,-1.2610795176766096,-6.16656076127075,-10.097082171804749,-16.3120227807881,6.642389146250186,49.172380910391496,14.946267180708492,11.864160826650188,-27.887923677747416,0.6486645258831256,-20.022318965861615,-4.070451784350557,-10.90669318366686
-31.91714848050003,12.925749310787387,62.97044059011314,-9.259928565693983,-19.345588866323688,-1.6824549220181186,-9.594326222530153,-10.342541559164811,-7.824493907078683,-10.502367481714302,44.884128959524006,8.16184528401915,8.658387040324488,-33.076387924541464,1.5341384371191236,-18.081049122707753,-15.517992246505557,-12.12035148144363
-24.994878780775544,6.998461284850119,56.367158102603334,-8.236900343428728,-26.77821129505009,-7.180804739811446,2.4073100180144884,-7.3791340565075565,0.3729243965997213,-18.176969524065594,36.69655160935937,11.241333781403203,3.8981499011627037,-30.559686565200188,-0.21635408349792762,-12.05294932558698,-17.400535134386402,-8.544762643434003
-15.440360901749493,0.09136416654123991,43.91164717385276,-7.986829418626343,-34.50644233626615,-0.7637002172553728,5.033315644520364,-6.089780184657201,4.5691781427547795,-23.803368896791966,32.22692667444228,7.5830850996642845,-0.9516381542239998,-24.439484258719727,-0.4035539241560553,-10.531930756325352,-14.210309691494702,-3.1096361235170473
-6.671616870637161,-12.385525353298416,34.490688455832796,-4.114856138090653,-36.670843946585116,2.3342357460010703,5.022106811304758,-3.2518051305286857,9.061145001093056,-29.529998905127176,24.93215738891885,6.855386608976584,-7.062828181497331,-19.110414100751836,0.5818847597636303,-6.97494899708817,-11.12314856645611,-3.627568034699209
-4.84108178185744,-22.326681640635663,22.440056765789706,1.4261205241591606,-38.154326734788214,-4.039447199978094,9.893359975189624,0.35350146904027824,5.840824396163423,-31.743485519409855,15.984106314519774,6.616968676240582,-9.454838129187898,-21.701520986956293,5.57201371518342,-6.362567089340299,-11.947675257605116,-3.7507818748254786
-7.214332689791286,-28.26730252258985,14.986346252428817,11.566082840928438,-46.37889980670486,-2.79465441128597,11.053222828311345,6.190980888383123,4.966894737783406,-31.322710071238955,11.144547779808338,6.282061434684767,-11.643313872855082,-24.790841473827104,7.144822410718213,-2.6400175650959596,-13.168181955068041,-5.139435592104551
-5.881082705625348,-33.5278120841381,2.656675328450852,14.78166154189859,-49.332679258475686,-9.068342525378014,8.697038011742181,9.670697392865907,4.2908140264855525,-33.05286280024413,5.628218287677093,1.1632725667319885,-14.507146853785656,-35.60506795065211,7.351101503753021,2.727826921676673,-16.835451232483607,-8.379451807149852
-9.044568320785643,-38.303583580612845,-0.7792974128321788,19.862291061261306,-43.695317369875895,-17.586997403144476,4.094381624537112,13.038759929148188,3.226561262900141,-32.148674709152125,2.7554450147409426,-2.0984898213909116,-10.331351946995,-48.284750315752554,9.608850368897553,4.858078674753543,-21.484586210311335,-7.41602668101506
-15.142248244772523,-42.69232925172993,-6.356981142861429,24.073786012651688,-36.205211009131375,-23.956021357359578,0.6632983471921206,13.267762341058525,-0.8626998864554167,-38.47353711939015,0.9636665082906788,-1.7452021290871667,-7.123844774681707,-54.5289895335755,9.816422706721472,5.606239923535089,-24.57645405870095,-9.671124440991822
-18.1193213490204,-45.61986505701846,-9.095917215509942,29.76015677618531,-31.452284168175705,-27.98009619790895,0.1616495597643519,15.631209243957112,-0.06677255949112393,-35.71856630138427,-2.676888531766288,-4.6127194526490705,-0.19703934718158678,-61.076173009520986,7.973797583355221,9.659893211224894,-28.064177188614,-6.257866696976642
-23.932884729039092,-42.39866705756583,-11.535294336352806,33.8942310713484,-25.13960395486831,-28.584980628707836,-0.04730339745728873,17.88296211987873,-1.1241236020837526,-33.16120576395248,-2.013822920358905,-7.673462765139063,8.98420806681275,-63.92233109322691,9.159156796852066,9.890040368649156,-26.47888896265707,-3.0356938660341584
-24.477317069159852,-41.036713913434916,-13.284570164731932,40.48018672774417,-20.782854226617367,-34.65751929212728,5.700606979155809,22.366799095426956,-1.691052661869854,-25.23492186027464,-5.641059443281428,-5.751380454079261,10.947101853051468,-61.70024738920188,13.27482212956173,10.10535596266961,-21.578394728909274,-3.520260710129236
-24.5378149067124,-42.6082810193463,-14.734465237823002,45.025970782571726,-13.596808544176945,-31.158406835636473,2.756736481226051,25.66469449124247,-2.7442251334854078,-18.385082356998684,-5.453048394924732,-10.272234495821737,16.141020706978473,-58.60919088542079,15.828517238260432,10.30586853308089,-15.608787769867952,0.39404891370212347
-22.258844594844867,-39.49610109512409,-17.44759373241118,46.652859044961104,-4.069756133235597,-37.71683189642447,4.20723732242195,30.315747646968482,4.798438292639306,-14.95542934896604,-8.090559766105578,-14.302129554905441,21.14793952261153,-57.48121634123652,16.624906497858476,12.444767260741884,-10.034898704455257,0.4063505692158973
-21.937306256416417,-35.899489536974905,-22.986570387344003,49.56032199380181,-0.5026032145729964,-38.80519281041651,6.3411286215161,30.558152874131935,11.561701561734981,-10.55132031867159,-12.674718356553448,-19.598707073360533,27.82334643921861,-61.050714860276436,19.081990794568302,11.736863097394192,-6.028584217041108,-1.4325200258119697
-25.623968132919494,-34.35757620936176,-24.71076013938928,47.49844390092491,4.721957760316176,-42.52905709162507,8.474817637804431,28.931015298502395,5.6312249495331415,-1.5593741745041463,-15.299259686883033,-25.966451668807167,28.84289728382773,-57.989357014758696,18.121547726108204,10.623645610067882,-2.710887766730729,3.5689988100856134
-22.77174613571436,-29.596867755805867,-28.968007544936036,53.74884886913523,6.818703378195146,-45.95866360661491,12.073180098173232,32.27038353932788,7.319720604787067,6.45396304661794,-19.186934840603953,-22.174521378036285,27.13630584655728,-54.54720062757302,20.091310571119816,12.523187619225432,-2.7185308094586427,13.946063353144122
-23.439335504280216,-29.722977156528266,-34.19588020663295,52.4911460690133,12.037736806482343,-51.340107369951106,12.546310015201499,30.41986239048545,7.056629875483445,-4.382629557803662,-13.497780724192761,-24.04326639182808,28.66067110352411,-56.778982056913875,21.76855414434522,10.013558651511772,-8.004630007738935,20.030579212561353
-25.67352561602738,-31.806188648622822,-39.808522947976584,59.448386202029795,18.718886116212026,-41.485588970929015,0.03078159991387963,27.188116482542558,2.498064617727122,-14.537558078601615,-8.485906390453685,-17.314451159180543,30.681548399333188,-59.704107043406104,18.953975918029347,14.520777954032887,-15.639414441525586,27.291401160499717
-32.599304532021435,-35.55354130733413,-37.50511876937829,62.6088130845484,20.612067358409057,-51.06356482656174,5.386444860889954,23.454081283392764,-2.840401108638396,-24.987353751231723,-2.2958612679359085,-12.925535396290064,29.878541883927774,-62.93188914735435,20.24143737500473,11.200938564802495,-25.232213896896358,31.724582556712093
-40.11498376640141,-35.88684076419861,-40.46955298546094,64.80463820869204,24.65099318374761,-45.11251841065929,-3.5160944277224626,16.38570122816292,-5.931484090430391,-32.99755345668995,3.5097842776272543,-16.24748603778556,28.693057633263027,-58.259016778766394,16.548749083270707,5.425291636012663,-30.72820873470578,35.08798275414187
-34.060123855386365,-35.54050766075108,-39.32677226625027,67.5008557524014,22.339454899942815,-55.95711190060893,15.608965645822158,14.772194977797112,3.4787695689153804,-25.872604411115425,-2.592629527117829,-16.44008366057736,25.75784513376911,-48.32218160441893,17.153376809453853,2.174463284400872,-21.873296036526597,33.08468049170723
-37.1889074040816,-37.05364294039673,-41.88948472593125,65.91235545911556,23.150269521754737,-52.24915663373366,12.272572010652068,9.140786998253658,5.858700995681554,-19.237698363519605,-17.282785749874613,-19.557896493489597,20.58456883345265,-42.10582255484687,17.758360499753856,-3.9226348811806666,-16.050512938552664,30.304608091736835
-36.80575369125365,-36.812905690933654,-43.9584954822164,60.33222039455407,20.93101709059301,-49.12554397732018,12.646995752876553,6.425205375435695,22.497584725125844,-18.07333334931002,-32.845768830250464,-28.823417015322725,18.544352919438026,-41.95364645135817,17.875392034947325,-3.588424261189605,-17.263785827164476,25.673548142526645
-28.808959527520628,-39.4082009438515,-46.998757491239346,51.63947081521548,16.365320838773172,-52.54333345405634,12.630606664147841,10.141160635697332,36.305201508501,-13.59026608019823,-48.89099328091528,-37.400389294690854,18.953537056936383,-41.2248423191266,14.18408891505773,-5.319028968052756,-16.430903618103777,18.410255617001425
-28.433050733986637,-41.03086385765528,-51.30332961682474,55.26412093696476,14.238430402707092,-51.95542224751216,8.317088168114843,6.714262197455577,45.0353067508629,-9.890075081099976,-58.973093177210615,-41.675261763961345,18.58935507496883,-38.16148057321875,10.688399251652985,-13.801915232384818,-10.231461666221332,8.417088809777278
-33.724787401100286,-43.92700527362662,-51.50112047281746,58.21777321575118,10.546400065977867,-54.881385238471516,12.304279929403583,7.570504444039014,39.01966582634806,-10.58605037390342,-60.064722846342306,-39.30403253780255,21.846339985911552,-39.69716497956806,10.1227206570029,-16.73209646214454,-4.231909516490651,0.6746076251410806
-34.62533379935951,-45.06921388353992,-49.838340981000925,54.836351192659855,9.097904528068185,-53.6061856560993,10.138825760007672,4.311364074728045,36.520156082374996,-11.381205312808033,-57.24412829960562,-42.591359941108806,27.747844596380503,-41.43719603097183,6.920542978545174,-23.28928283699639,-0.7759911963850232,-3.3523075696962765
-34.35730355436877,-42.50430937153873,-53.2487720767642,52.737221608784694,5.4983694697761845,-59.26272643646235,9.926305620537262,4.4565330719850245,33.43503075034994,-15.59585735493243,-56.27315889910371,-38.93917789010777,30.33667252162437,-43.47912496280645,2.2537403072857347,-28.492806140014853,0.03867731095609628,-9.132476861904085
-39.65898572469318,-37.208839518970386,-48.84167185515698,54.654854717956844,4.923680209128822,-61.1085726465146,16.158961276062566,2.048938997477469,32.59624107800456,-3.8937287082852343,-59.69095768199716,-40.06619706849297,37.32770661095036,-44.45563172659837,-1.14328922055598,-29.705777827389326,5.3411527408008475,-15.982283626340287
-44.7684755183281,-29.475743870793067,-48.140731785851244,54.43685693165617,6.787916452138653,-55.23732715900812,15.067035290770956,-3.3019956019117958,30.19501054880281,10.346114916073592,-65.73972616147813,-42.74949354662179,41.8848221124278,-44.56191506545568,-2.1963288177808504,-31.81094924694945,9.760300965377013,-20.776668663568973
-42.26368355535961,-28.191839109174058,-43.919355514890086,50.227765740246426,7.087138010216243,-58.25071435858249,11.240423598177788,-2.2210702884473865,28.477341206197018,11.400821391939331,-60.35678959071053,-43.66848544651069,43.91027409491543,-41.649383049008875,-7.0578342031514705,-37.34727988113922,11.440666303599748,-21.757782080089346
-42.300910791167645,-24.958517985067743,-45.65041848900394,48.86364803345997,8.751105210332618,-56.867186329482756,3.0189250071496385,-3.0091316326361035,21.193010486169406,14.70035694979196,-60.04634485226716,-39.89322181538139,43.98991763915698,-46.36260294497799,-10.45430520397621,-35.279297234588206,6.573638001344545,-15.995882062730912
-30.524362641478607,-27.295381040800713,-50.99020779938814,57.082903513696756,7.678222012035139,-53.33277213213302,11.008301346237037,-10.15837030297918,29.435961967962065,18.486924713361134,-62.269328449506965,-37.3806061996951,41.83068408404988,-41.12305052047767,-9.456027085540843,-36.05622555462084,7.757105307287649,-17.55367456642671
-21.973221672895495,-26.217866965611456,-46.46202633720043,47.932002125414414,5.62635766422598,-54.09278007149321,7.571389109518033,-3.648880077474074,34.94406898509203,16.217497604924052,-61.459285884736765,-36.42339355548083,34.69805728216258,-33.5478940671222,-10.606085552474381,-35.08799103753944,7.764435813039558,-11.684833215165254
-15.280167619831857,-31.589354613491516,-48.76541685706992,51.78249791300008,6.892483500539946,-46.15862472013178,8.821690695395382,-14.633406373193415,31.760079290632103,18.243836566924468,-62.98742850787128,-30.868928526987442,28.549056082493742,-30.08240474194593,-7.947375190589689,-35.59713304709903,10.111348050101629,-12.061435053305235
-13.570133923043638,-31.69085867918929,-50.77143167553133,55.05995255655978,0.7342796760229309,-42.616333971414605,9.973950464459229,-18.306805237379223,21.6417014088104,23.78471905648566,-62.26387714896881,-24.13501503744105,18.598344158356767,-24.085712457489198,-5.1909064535457,-39.536634315385584,15.579143285991542,-13.214641131324429
-15.280480310583844,-30.721602011195635,-46.81598737278256,50.73298709482098,4.730171751822963,-43.8564263640436,6.535884381265578,-17.794042052163462,12.792054157874128,23.562697947423306,-57.43316837206238,-21.006666332885864,11.584194882004308,-13.604514781669053,-6.243004846502819,-42.12108753670419,22.410020941824712,-10.847506491100411
-17.3836983804007,-24.97052712401549,-44.614109106045525,47.4931095806545,-4.4600070991545655,-35.62075644936307,11.691257792611248,-19.149809987243962,10.484523747472274,25.097456148767876,-54.257141531371275,-20.800063394586225,5.260366024379451,-2.9356009808996504,-3.877013048863465,-45.98706773752123,28.357891075159067,-8.47570653451736
-14.899123061114597,-25.96118072381504,-40.06423368071192,49.44190522599817,-8.867198930559155,-33.72975995470122,15.967238785700099,-21.885729138119096,7.00401669988409,29.951553079749573,-48.341230128473825,-20.09697189071376,-2.0334415780826305,5.284424725501367,-1.9015979060581123,-49.86483447879602,35.96189229104309,-8.150051752017362
-17.29943312020061,-22.169879693080784,-37.658677276526205,50.03625661818543,-12.690652148014138,-27.440964691500874,17.9965863695494,-25.02512635038956,2.8386896191260256,32.55853172074053,-45.349614096038614,-17.139340715361104,-10.199691005952978,14.864372223576495,-3.637137074567619,-48.187700963168716,38.581334850594935,-4.889996578752022
-14.525757763990082,-20.43259303447635,-32.612269048930834,52.98710022548994,-13.195914983682783,-19.976952909684996,23.834046334321428,-25.540511317594238,7.070580312847607,32.820767029562774,-38.05565095186035,-16.41921601236882,-6.347684484185848,19.55430721186928,0.38915625327618175,-48.47511185735958,43.83355825898748,-3.8714017050660607
-13.511671621425808,-20.358614084860488,-30.393899212452713,51.16535465382753,-12.043133390018129,-12.704807598936021,24.104440102486052,-26.361511217454755,9.738467496051134,32.105498540538655,-36.42045985899768,-18.522336442415476,-1.5128735376229727,21.405206139222244,-2.518237603378159,-44.37910710190518,43.613005004926855,-4.996611182208538
-9.37416157832979,-19.897051838594873,-31.58956938289889,53.94608802337977,-13.91984271782947,-12.851074169251113,31.698552470208483,-21.628551900974617,6.838252431052123,34.905011898409185,-32.240819802568595,-16.417139303248774,-1.066563593227798,21.784443906390138,3.1682491143228417,-40.58704574509506,42.60728065172918,-3.089767951535183
-7.581933967308633,-13.383676284806903,-30.82815750699021,54.0048864703994,-13.747803800798948,-20.024992525935122,40.95219628203935,-16.810352316503828,5.596477060857097,36.33644807921408,-25.419101802879602,-14.302704625810634,-6.5714109081336005,25.379761009947785,4.3624668604361565,-32.80176932321409,44.820385677757265,-0.2016891519602635
-5.0098131619264095,-8.728680816173636,-21.0783585066116,42.25948854889414,-15.530946847830172,-8.542446322286267,34.18928107882315,-7.512194860243744,5.6223803298380695,36.59514889680077,-14.490468245489925,-20.284424916879605,-5.62501746146555,26.136548765022766,10.537204633351017,-28.445042888212512,43.904599191665355,3.2769881819043007
-0.5834354351343194,-2.513958641629472,-18.844381319369795,50.93684880367721,-14.581662786275935,1.2838865179857208,39.53519532539261,-2.034863313420196,10.13853846873256,40.954656976349284,-8.048828607622905,-14.049293429828989,-2.036172524285071,27.082370361177702,17.786141621640766,-18.62978371462051,45.03581272202229,9.885357690306334
3.451200234047981,6.432471183318356,-10.258876432633965,48.688725044106235,-12.364779814628259,5.3525140454121285,41.267001036291205,1.6725838620837177,5.277424255708137,46.77823629734608,1.816065724270615,-5.558206248400403,-2.7387153489164078,26.459561575728223,22.00764214114964,-9.801169238574047,48.507029882131896,12.39673741917943
15.102157854080374,10.884025975107832,-2.939195992920574,48.69879687138477,-6.829447183471291,8.741772769256286,45.53709297061167,4.000911516280711,5.785229573341542,51.917437835390686,12.565085037444867,1.478032261560589,-1.0920614740478776,27.783977826712366,27.108005827453084,-2.3495921072136596,51.48620571047838,15.889319041350188
25.385054736497324,15.821342438332351,2.9192971758748527,46.670000894561326,-5.885903392258756,17.897208220604163,42.67731102838069,7.782332925795508,8.732096756332645,50.708132215540445,21.7567570876139,9.598709185863576,-2.467530510695056,29.29795806237172,32.40361918239145,3.236902048677983,46.942011557238516,25.831923511301337
18.47946628611996,16.654600462712125,13.468994329367462,48.071040444053416,-4.162934096323673,19.34218737736162,48.50816442833991,6.571581006271886,-1.3120210061185098,50.47466780485732,28.902764021864478,18.608690701733778,0.8496932033698457,28.56023837809579,36.52726520889505,4.321801925511515,42.19880574912474,33.43533999892509
16.553828543478176,21.196514504490104,21.580834932504608,45.87042104531216,-8.105911384489195,28.799741731648297,50.62707474012729,4.177456370053388,-4.718040046373545,46.724804736921,34.88199580066138,28.31283853465964,6.027387619534647,30.844517504873124,33.033525139909415,5.592931193243025,37.06129984721622,37.13702867872453
15.897275956603373,25.63852936556414,23.05549142133343,40.067998682317345,-7.265418241628703,31.13305688542215,42.58858505133008,0.8930859977035368,-8.712753289233707,39.65387302598286,41.35460362433058,32.36357206482125,9.647382601943022,25.60394127858048,26.121674642678798,5.976311169843122,25.86537124881494,37.425260466577214
5.1816386136765615,22.461097001907895,34.78770877021767,32.909750776622616,-6.03601415853388,25.07271731973585,35.42797343248815,-1.425874242511461,-17.30024611199981,30.140805262542386,43.2423538158205,39.25728219614362,11.02592322209221,22.799781820687762,10.322873918842697,8.89022338977226,10.954831394525444,38.0110098723012
-0.748979838676636,19.769908932743306,33.046612629691985,37.28634209472277,-6.5661306737795035,16.868953076889575,34.6140264029429,-2.5839449861397146,-25.988378200882636,25.900574293099464,44.64683934430097,44.794848382044755,12.116012149733681,20.186094446906495,2.043617824708689,7.987179398778558,2.876741323843273,38.015335767108354
8.84789819449955,16.88146107235292,31.308928128277657,31.32227584770203,-8.172125000548839,27.615970067814345,27.646506081090497,-2.9715881976507132,-33.019423493246435,24.78471971588676,49.083705700822144,47.511561319449974,13.698757920334588,23.03658103608128,0.40498213590258203,6.978441858598938,6.318697175804491,35.48506001524781
25.964463070396626,16.43261337858027,27.230826894703583,22.537029234718595,-0.3069228057624471,44.2277643248798,7.201034753346807,-5.811335160420297,-38.19817712608682,30.113613149307497,54.79507927056345,45.45441728469444,4.9339968753898695,30.667821757081363,3.6491239539996414,6.0595985257830485,13.565761683628482,38.52574984467837
30.38568633416567,18.325809839867425,27.160019757226905,10.930427950084962,4.82229651307347,29.887500004864307,2.867860582134604,-9.345167232933768,-39.083303406225404,28.1175203327673,52.40578147846664,45.361945476415144,3.106993536531842,26.96647414646481,-1.5054119039000877,-0.33556591174989947,15.53578889642485,33.07466360424956
32.36575299880897,23.830703440747662,25.529973505461612,0.11562884491243608,12.58674643382734,19.36146357890904,-9.376867335045496,-6.639200336693582,-40.948425146954534,31.101322346956916,49.533079223914925,42.15608236609136,3.3347045737577403,34.784634242361825,-17.30475486785486,-4.8824416070613665,16.428085287999913,25.186552254848813
37.861905899538364,31.28721547940153,27.809479760410966,-7.270793569042851,19.959074361397107,17.337356169254598,-11.173540238676082,-2.67378944993606,-36.078682608940646,34.18213681740381,50.37621712259483,41.20813623932735,-3.2698813874624513,49.43491543248523,-19.92041656860897,-2.7955166341702373,20.734930408917794,29.705361531989446
40.917141812896084,32.29688359038589,24.525696040902822,-1.3655966548196545,26.255712972843014,42.27261869929938,-20.686543568502202,-15.710736940447042,-32.18913573931492,28.863743885292777,52.9820007247914,46.717515918672646,-12.507639099757117,64.27677626005408,-13.746994290951498,-5.891091705950313,26.698508390980365,31.10347817592217
42.31283968048316,27.64107328073859,19.97552131357806,-4.923227333289191,32.062645008462304,44.654903230849214,-15.06401112366423,-28.56208020876256,-30.354114767284074,19.052455688434776,49.342454208907725,46.96541181152842,1.5982323207507108,53.91938901795498,-17.632429552838303,-4.7937348787825655,17.228738211984147,29.087894608860587
42.635060924374734,19.76133183883332,15.330806903614626,-5.639007873691526,29.957917895411875,34.34776594480376,-16.474293958001176,-31.364181843710508,-23.15172301633119,2.0138571388716393,46.09826125541005,47.12779641525643,10.043225787001528,42.67971549448923,-28.84230193628606,-7.413431306502474,8.048539686219797,20.63118478820201
34.26661462967159,17.935248467531995,21.919809113486114,-12.985940362052673,34.59022765275713,34.203240422197744,-18.862655112221518,-32.32008101600299,-20.933768883530472,-3.1111338464311373,41.49153834957681,43.68909622909714,27.964132623079074,41.00731806289203,-41.32182643942453,-10.038892299619654,4.236139209063179,14.717823012506193
24.43428410005123,31.440412386014586,24.11724793466735,-2.5497945307577794,35.6078880931786,39.143244381254746,-16.272014094122042,-39.33983831568805,-10.71185712930631,-2.084323758329827,43.72548991377418,46.51284086391209,43.544207884909696,39.624895204196726,-50.77405591468277,-13.255767109605463,-1.4351117154817565,15.84002588872971
11.282680414881181,49.33926053784681,30.80993606967509,-5.190624215474841,55.76518616121759,38.52320203266765,-22.960441190881546,-45.09890150101637,-11.529327429635364,7.340415046704699,44.88979168666543,45.54037350326757,55.416084978251845,44.00146371766835,-51.730148822146475,-21.458354371592918,3.242029182498772,17.161710577984728
16.394269793655546,61.37783390326328,30.864849402362402,-7.529529865351826,52.3857220965862,46.89423209493621,-26.03715334931057,-49.206412507637296,-9.811830301761635,19.889563780412534,44.98439480335619,46.04529495199567,45.61058179097451,50.13323911720925,-51.31911055520549,-20.388322018211547,8.501813233274646,17.803914859583095
10.081202293366724,65.79839664041565,36.48916359867416,-15.91447804710694,48.126123452542636,49.31481319658913,-29.310839350071802,-42.87294225302524,-12.493137640590604,21.500406717505264,39.02870411263989,48.41831129586759,35.31927047160402,54.016436385003196,-46.02525126367776,-18.053300546703674,11.707507502896037,17.27830600625453
18.125221687850328,61.72213229480723,23.561374867162062,-20.482252788621366,43.57236765432538,42.66000784392151,-35.51595095918418,-40.35628297682517,-17.91313606083107,21.059796859229998,34.54231368696518,45.237501575905824,19.952080405998498,47.93627581627888,-43.172888671331336,-14.35532598851833,14.031031743503153,13.143395087612983
35.741196316354035,55.301581380560684,3.2144234727443317,-23.869830896649333,47.70899691599324,49.19588819896692,-48.85180403416014,-53.66809357031802,-23.728103754404746,23.64593525705442,26.153994420652957,44.31554434977782,0.5830907202419198,46.541599616965044,-34.9493891966227,-17.79031362991281,14.105205400999322,13.114096817842348
60.976066125642,52.200995355481346,-4.336580622482455,-38.3823072129361,48.71945394304354,43.43388862420021,-47.540753414361724,-54.9756696582609,-24.37160915611569,25.743141871878883,24.606042893893108,44.48059803611813,-16.537758234858742,43.191862053064625,-25.456361978865957,-11.560822344529926,12.906634741042213,17.971625105370855
85.23604179664375,47.342273885314874,-10.224662174445825,-48.980610826301216,47.67800229476667,44.61268551284292,-47.79401258950713,-58.146156660323726,-24.726594476272716,28.132677403188705,19.937313390498417,50.029646363865645,-25.258182662173574,36.715350250753545,-18.30712589720791,-6.79952313340489,14.341659411705878,18.2431299654325
93.09128919311864,36.62389365151916,-28.317262792376543,-49.41486865489527,36.86970809812796,33.20082939892135,-50.78350069126903,-55.46433423758041,-33.19167606871582,21.537055624642775,14.491534121172315,49.14613772033388,-41.30123117968305,20.27620183256068,-11.646164847602256,-3.506103236887398,4.152280698238197,16.077031391786335
90.59667394385714,16.041988692246157,-34.297647817335104,-55.99414654470023,21.17748517298865,22.968157118100354,-49.57554194036596,-48.49246224462527,-51.23176615925317,12.694660142549338,7.194411122691406,47.68956316814623,-68.18273332542985,9.402176358059918,2.9251073689249125,1.9330877047306316,-3.110465342656603,15.867876387552922
85.95552885378345,9.620464093782083,-36.17379470223079,-66.96082912045952,12.124972927693687,32.56738937434812,-54.13124702997565,-49.04685821122986,-57.75283435317569,2.3867530111923614,4.686610699461843,43.12083976746113,-74.84767688539458,4.874714099033881,7.730661806173579,3.7565580412110435,-6.3723092333447475,14.295249558894836
80.0468530878668,3.8826523763176137,-45.176386455392716,-55.752235475986396,-4.64349105566701,30.35750751611146,-39.74322625112672,-42.08795618156059,-59.0050127840712,0.6720823452902032,-2.309413621299651,43.64322759294877,-67.15567350452905,-3.2670965820215407,5.797911863511743,8.50769225098341,-9.637182292714503,4.327740552119085
85.5662292349686,6.348299860786936,-47.34040927207608,-52.25185874182618,5.833588942188278,34.600594880160266,-40.98233543585266,-49.490811127916814,-48.6405803450175,6.9647034852592675,-6.371735812500187,40.369873754172744,-51.747594677504104,-8.577667437748204,0.6425610410196416,9.643738332998936,-13.100362153164063,5.496843591319799
89.03696240933735,-3.295303374189171,-37.197072902538515,-65.05380471963635,6.153322623979774,23.71437357193468,-37.43811993474954,-53.57908853559722,-43.7496687593134,1.440098020118981,-11.211413215298293,37.01176536752517,-49.522339744212296,-18.088178781918167,-1.4852690727468705,7.946275324631937,-21.644696023603018,-0.16651995560116006
85.67389351424316,-9.813450114376778,-41.6022992751634,-63.591425234472325,6.472138626956028,20.257860959575368,-45.51709029722486,-56.98925923201282,-45.504193275712765,-5.647667286392014,-14.582381943672836,36.400961396065384,-58.33157902689432,-25.25538543508066,1.0746306542177724,6.735983865237481,-30.289597281936842,-3.0919465456682076
75.86772064964086,-26.78046673320368,-67.39217382067305,-28.13808089630404,17.82538479808456,6.6527399150229165,-43.929866504391455,-65.97112595778553,-59.275347119305664,-12.345432213874481,-18.242546308836058,43.42032484153125,-61.866608065634516,-29.590822458750473,1.3885895175242542,4.645973257977332,-34.93339676689559,-1.03336359074736
73.38824935509624,-35.055336877006916,-58.41353985940272,-31.54666941909924,28.298839663194393,9.85261950067544,-55.723679653630796,-70.953933225702,-61.33231209709312,-29.59085671544962,-11.64493614856911,50.94080816075184,-63.83855656196639,-18.69178093982432,-1.8129129973359834,-4.18290321615078,-31.279107517803745,-3.756600884339367
64.27048410064658,-36.884089477599865,-46.69818039530658,-26.844040652791435,31.349457132730645,13.158095614267408,-62.343560613932006,-70.76548703461197,-69.35114698224407,-25.156877923199566,-2.3092639458317485,50.66146242627421,-70.88828376210935,-4.569987296963387,-1.7914614855974307,-11.35176235669097,-18.643076527272456,-4.230357160981725
36.50258139522791,-45.157447317724596,-33.22271747719452,-22.624297715586145,18.481036060675525,7.291749074661766,-59.199594153016285,-81.12837843503115,-78.2536522591511,-30.00098900774791,-3.7123649898619995,47.465125141531146,-79.79321441972644,-7.538076137194551,-7.140904550378849,-20.082992345226366,-27.103836393581993,-4.603158874058032
20.065523364894442,-53.918189496821746,-27.167023816927923,-21.23144733601962,6.4907298176400126,-0.4220268096037323,-62.112329786355374,-73.62389613099725,-78.85999851997357,-34.45506126379892,-13.90115222640108,44.96507472534348,-89.57689850855822,-7.576035650066917,-12.58769053545364,-19.92689821505473,-34.29771062240447,-12.297050491843958
3.826381028237904,-66.87721154783344,-26.187359373798603,-19.63831937007051,-9.113695676000297,-7.151098112858712,-55.84715273651331,-72.76382038267643,-83.37739668606348,-43.89025584833821,-22.23100026963586,40.62214354061476,-108.63802620385981,-0.5820659134444348,-14.323132762195025,-21.332542028367964,-31.533103606739054,-23.894067277279063
-11.23821718573376,-76.02648035322574,-16.123398234620065,-24.583516383783735,-29.99240005287689,-0.5905334537680851,-48.70496069632209,-65.55935585869436,-82.13771918803283,-47.07591584150708,-37.00288580582476,38.24490867804026,-116.27327823680763,2.2133675598894023,-12.347195329646349,-18.440144054916917,-26.817890483207172,-35.48795564722193
-22.882094446105555,-79.11976964840893,-11.037902177590478,-22.785802776876764,-44.23111699952684,2.560246388910123,-37.75600837773222,-62.55721946000949,-74.35968818831121,-46.55112330353357,-46.00966052481182,31.094902967710706,-124.10404443121539,10.478555425299424,-12.519305696473745,-15.839303745790565,-15.073806308131232,-45.32093206401826
-28.566102773427204,-76.15698140946643,-16.302095011867518,-11.413319576771984,-55.34550299624716,-11.077819539086512,-22.609648921453235,-43.346621574956174,-62.48472674943898,-42.9994607352414,-54.915542947549895,27.961231660729865,-130.66557455118152,15.033844281117489,-5.171309632276594,-11.576553129226111,-8.703318645671716,-46.557010178322905
-40.009126174316805,-71.82558940509651,-11.505558169384484,-3.55241776169441,-60.210487970249886,-8.886999928743194,-20.941914639224194,-38.10347936193574,-56.47389951357759,-39.35063605628449,-53.954828999340556,22.886673058739945,-127.95004692770628,10.996521093708077,-0.6548886724614924,-10.534467393518907,-9.757171558156386,-45.153367194956786
-48.226609530103346,-65.83252298779638,-4.070330160494155,6.851470569929939,-56.28694799946347,-12.644928073201108,-21.424486335175896,-24.07321248143642,-56.52249282715483,-28.96389595046806,-46.740925321008206,20.94932199019331,-107.16837519085493,-5.63720769346688,3.9597292226880114,-5.5837212274707255,-11.301593901780295,-40.914742215313446
-53.51148468437725,-50.95101237226136,12.83957930373819,4.954158860751395,-39.18026175365489,-26.062558688882895,-13.803277343116296,-22.83785256382747,-51.59514878228304,-26.87850262144658,-36.39895015018395,28.203842661787174,-71.44571457882179,-33.98824879829057,7.793665096068839,-4.243652068267792,-22.906969439438093,-37.94281437115704
-51.566771216639495,-43.68511913542699,27.79816172140172,-7.291406094646946,-29.593846729096484,-34.00290600096146,-16.24260084489488,-11.935788681260703,-46.965348092398905,-34.07100082132551,-27.225914895477004,33.51712908390866,-45.19660510776503,-59.5054254710745,11.335249173267961,1.591639149526106,-43.49898502142334,-28.52267565014501
-53.13478209357169,-38.76122942185051,22.055076571461825,-2.248289679784535,-23.81668496542076,-25.332954946089302,-13.21484722578952,-17.05067434249156,-39.80097522606566,-46.04909890957352,-26.839194421095446,40.60004393300477,-20.217899153301758,-72.42279036706958,8.236770643796767,4.9887573969493175,-63.50710081156962,-21.052944532795312
-59.09439982796623,-29.245548534125835,33.30615550297116,-9.018702016022495,-22.82532958332549,-24.8577422130372,-11.263053781182865,-11.423955458320627,-22.387024011164137,-48.45707048059693,-32.50444343720525,39.296043053833856,-2.8574500919061165,-82.21297108043375,8.65467750865985,6.045662627977469,-72.5795117074599,-20.025929229010924
-71.59405876046718,-18.067714400917993,41.23853077525563,-18.42301669047908,-28.76822612307246,-33.65147703895685,-1.5003325938718497,-1.7936819759753888,-12.008866306738575,-45.78712990633011,-43.34281403414462,34.292551170611446,12.06050415140244,-91.31723805189101,5.36234070842457,8.18067546034876,-78.13811792546964,-26.808889570648436
-78.2311910752808,-11.868360087930979,51.32097618588842,-32.6099026309456,-36.86012010248941,-31.108353779522147,-5.41135075254002,9.69201045993983,3.150135836818727,-47.21905996699381,-52.32302101476307,25.003467536671707,29.125781155745017,-97.19631713179069,-2.3237995846437087,6.706521386236554,-83.2102179605898,-36.323673823772495
-86.42775126083207,-1.8581968766377095,43.142962433402126,-25.504939236589898,-47.88224775018335,-24.162052972365565,-11.374799356903253,20.201382223040596,19.574358212279407,-51.97155079111249,-61.886580348148215,23.635847986322,37.6935928124031,-98.97111594736917,-10.595046549918742,8.654851828629658,-87.30742823421033,-46.3242039842612
-86.02730158362009,5.1268242213116295,60.45509343027523,-47.20674047748216,-52.850070805953884,-41.03564600808527,10.394972144164164,31.00431865497741,34.7247568541992,-59.65392028144055,-61.38887123849004,18.665910256209997,52.803138274402,-94.68830723615343,-20.525589811553676,9.924332758561507,-92.77343620656465,-52.31827327937676
-70.38908392209014,18.46193559670907,50.61978142961362,-48.69131124224102,-53.42374422029466,-32.50961989638493,23.959957075453033,37.80421347678259,50.65220422037926,-55.7151108162805,-59.228532682892016,14.292761140774516,63.516659260169845,-82.39456406533377,-21.177716434983378,15.886427675854875,-87.88921135419332,-53.52466831299516
-50.45073432811684,26.72126937704126,32.77787547000929,-31.228389654725017,-51.36108023968009,-18.79911848830114,28.34362152068809,42.65221277521073,57.786304129331256,-37.90893682052525,-51.499328951371325,9.441982506759409,71.59190499419809,-70.29296490472407,-16.360031767741212,15.8967272463338,-79.97897911741363,-45.45118082138845
-38.224124941952894,31.272119882686212,25.093644908726045,-17.37709816549196,-46.36907815466663,-11.232434945105194,25.49916546099103,50.72450927389008,58.56856468177601,-24.985623643010246,-43.57251023494631,10.754110880128998,70.29040245372161,-56.91847249680027,-14.2757390309546,19.525970709289,-69.14028886253251,-38.74255153695866
-36.44364355067719,29.770785395434316,14.090248964591805,-0.9851805217446081,-35.02968920068527,7.964140404080247,20.211864942715074,38.778891972182706,44.01454044517851,-13.820059651142431,-33.10436595116198,9.342095444706949,70.45207285587897,-44.90767535227142,-12.97163608876925,19.352446703598197,-54.201136108413024,-33.203511338876766
-26.65194931633166,27.68618135203962,19.885107085111702,4.5680746764544615,-30.917311079665026,18.966083476860362,23.712408375697066,30.351205764869086,45.86306551714166,-5.486412871990785,-28.884168691610398,13.994929843706004,63.48294802978853,-28.889228124094434,-9.127312114649051,16.645978746857388,-39.2630312108364,-28.638790445920957
-22.52109892623982,31.366140657629764,18.747310976543943,6.4115075016122915,-22.020013322088783,29.19537581754704,15.004431356676768,26.1253824451423,31.105894016107882,2.945119149555236,-17.33756946441229,17.290416508263355,62.469078914792036,-22.144414829090984,-7.332632961565342,15.313145173279674,-33.798657212337396,-21.14212433723613
-20.242414644590745,30.36136259025512,21.907420860718425,1.4198986221698409,-17.71291036448335,26.64010473969464,11.86169367357314,20.82822947903962,8.922925384459464,6.787038241049398,-9.69528629901631,27.43159010202379,54.32424280701923,-18.52063036720353,-10.712598168344936,16.526103256488373,-32.33906001502124,-16.08473324416328
-32.31606244893116,34.82832715025196,28.877065657640195,-6.500610625681945,-20.046786025887318,16.183142590175834,20.72965854192789,13.483492457495263,-7.892603106739898,0.27761415714589077,-0.19559159032717588,32.69930027315965,44.81016149210981,-20.7521253424464,-6.962284181748053,13.253755595928382,-36.64195552345479,-12.392426047308675
-33.83929500783975,31.583311880594934,21.00353210976307,-5.338283028722394,-21.501965567310982,22.141247930072375,20.12367671282721,5.946988737401515,-13.188179206906394,-13.555683701163659,3.348815110291472,36.80431375152966,34.12206615222915,-16.72917539538447,-4.870839232327063,14.187896288601543,-41.72667294440068,-6.744883166766536
-39.75372419050218,37.52117561260176,27.29108161393449,-16.67564046822429,-29.20743533348436,25.666454048056657,5.551546871928942,13.55130086426227,-12.237245084743641,-26.90015366693144,5.723081322511934,41.797209996923975,24.408343310029686,-14.166579143249436,-8.930470964076417,14.250573248185711,-46.71416408964588,-3.3414306439245074
-47.22725445103393,48.73567575056654,45.2981806926161,-29.37985829884167,-33.39739277996511,7.324843608137148,18.51786439947806,28.777096991369874,5.409654298159943,-45.029228288343944,10.345144666827125,46.70117301661085,23.57918665700653,-9.743812490984176,-9.375357007692925,16.76239506081359,-47.6979885015277,-4.623554898824331
-47.275353978879664,54.972813717070636,63.11049251478994,-49.99415919570603,-39.540643076037234,3.054433700896329,15.857965006741388,35.804133914342195,35.8462870909535,-67.64984600117563,11.550771263727746,41.06658070371211,19.42729588739685,-6.781079794909754,-12.455544492671734,14.98521794624738,-49.46324243430759,-11.470218282794805
-48.10125467461164,54.181838147242146,77.30990107866353,-60.25669613374764,-41.48472066996872,6.702751140352304,2.552451270236835,46.93759390071278,62.470916001857205,-86.46100767078715,16.566547136441017,30.557332949974086,25.136383579796735,-7.133721632711019,-21.491348531266897,18.196762225631453,-48.98240094523349,-18.803260845977775
-44.23610635829104,39.52676537394039,67.29052556237338,-47.27679403727889,-38.741309404334885,1.6679402270187271,5.5549182228210086,50.263535739099844,69.46306630609519,-105.07595563625028,29.884639662311415,21.03264020852216,22.639685898836902,0.03842510872189564,-23.884872853304632,19.95184663046465,-48.89208621856895,-20.372629679617337
-28.84385212925578,31.71109134819639,52.09552510480956,-47.187959578240836,-29.65020082514646,10.508894698109373,11.486315095898977,44.70802322045535,80.65130629726772,-111.38503332134772,38.12584772791582,0.3826840416040227,23.753707909305916,10.829202048826733,-17.389941979998778,19.860064211294553,-38.9380971346514,-20.76828103118893
-3.9752911926777106,26.43792738939964,43.248410352760175,-40.263468234112686,-13.723080072318107,22.678529985682516,7.944169350893985,49.99821441297438,89.00435879489135,-97.18489109116527,43.34089099746837,-9.712780385898554,32.87296683534571,19.379293065318244,-9.916785824079994,24.562359600757034,-26.737597619485395,-13.544846594840108
7.127045762810493,28.687866927964812,41.432680344109116,-39.10130361116687,-1.4093000281950978,23.430474260269072,2.838819181134337,43.86843454369199,84.26824150643883,-80.73742433397966,49.04535296019175,-14.429880709010881,36.227640642742834,18.3645127891212,-10.74284316185763,24.879117686999187,-18.73585753315234,-9.249405016767367
16.47507023985669,22.835716984281625,34.05037906427444,-33.8381652144672,-2.8652413419603633,14.62016704561953,-1.1929144484965137,49.95214192468452,69.1774518101341,-69.26920137962315,56.118055739647104,-16.50330509629387,30.985574603776172,14.03509838198305,-11.86013335492153,27.353613549111778,-18.35075583081951,-3.780374179536011
18.30698290941678,22.748918827831552,27.54680750226377,-32.09148416171208,6.518869695499546,24.76360642190705,-13.330796433503247,35.53427383920909,49.396219458147804,-62.19416907631539,61.33619389627121,-12.027019200388615,33.55318921910305,4.438033284837362,-12.975637916882672,28.470368936153967,-20.796920565425314,-1.2394224869095787
10.474318574387286,18.75939505547278,24.94924349757144,-29.56444340684612,9.55529273733304,12.453844001582354,-6.914200384158924,23.56467430250965,36.936527435853996,-68.6920461861114,63.72308745182943,-7.349054981075099,28.598139882461815,-0.4654585109844849,-17.2143600410698,27.741289326954774,-31.836015229476203,0.4242188421859012
1.6686188155732733,7.54681805287165,27.429465668765424,-26.06184713588214,11.32225076632658,17.24219342137795,-12.705250500857822,10.039645735063612,27.59917395867724,-74.60234966437454,65.03647051757588,-7.450239410642084,22.370443020779728,0.20367321155277196,-21.646523903582132,24.971247093253016,-38.284101472992795,3.4566335296915227
-9.08669355901124,10.888896084660967,22.780140170012963,-24.611201125702834,14.261206215011661,21.745501247773365,-19.961530857767848,-2.0131576309162647,24.313972345696833,-72.11234786361787,64.6902887475394,-16.9207716597533,22.096692955905983,3.320507189026026,-26.85803329658542,15.472852125844236,-38.090223311542104,1.998312230697639
-15.150894629241858,15.211232135661184,19.790345318760778,-23.650093559412102,12.903342855515351,14.733047092111809,-10.128005797315764,-3.6089650497612116,18.48712264227991,-65.3235519381495,63.95398211869428,-20.916963557154418,18.401668716742144,9.178138735380024,-25.719831615900404,12.039443264415171,-30.765948844423253,4.447774929416717
-11.836418015902337,13.482494420560887,5.862112479705463,-12.338623531991999,11.74093210474527,11.634669029003241,-10.646434796043778,3.299321539505854,12.364834107729475,-50.81782578850867,59.31175856970546,-25.689201536654792,11.968897139613464,12.600825197094899,-20.575664233640474,12.034429774226265,-23.440150402469722,7.289296486582483
-9.006703479315636,15.66379457158794,-7.774040142008147,-6.497449458942068,10.090383165349888,6.2001822205580375,-2.5711503455460063,9.532121485217989,2.2361939124612213,-41.290559422039614,57.20891274404165,-25.768945743244338,3.774878901405235,20.229405766608032,-13.866935558209299,13.114187415856312,-12.597007408664915,11.792380108543014
-1.4859017802161283,18.337130451029438,-4.51642027482983,-16.86902357302716,6.291525716879832,9.46481722803145,0.7188034407229829,12.159943409340253,-5.1603325137452245,-31.175144684465245,61.25866202758864,-29.457400006527536,-4.2273072488207255,22.981818573939588,-6.76550079068307,16.64607926061587,-8.002152985178633,18.445266065851392
17.07372609538736,14.373502423860534,-7.6076951514351165,-18.843692526499932,12.45392854442887,8.14702271150558,-5.3664206308176094,25.343394210854413,-12.168449502242016,-22.81524988893829,65.01547378746616,-25.03593355508108,-12.330709861409359,26.131684463241243,-1.6151095508116313,28.392059785024877,2.844743179270324,21.1931249334124
29.09376959418961,7.874547601243144,-12.067446518458453,-12.030918924008741,12.464071148823937,12.989046799551144,-12.623505546019596,36.680169073669205,-19.37402198215594,-17.089677043683672,61.83849714830885,-12.50484636961399,-21.023692189412294,28.60486590117594,-1.7360905222772178,43.66469828660887,7.150655100734177,24.72347750614091
37.894571193731814,7.727128996923565,-4.32137629209106,-20.454596854182213,16.966651316883414,-7.162037501660546,2.580788842044946,44.11967709266364,-22.382370048880695,-10.384972195732814,61.3957211113509,-7.782651822467642,-22.884339704211484,36.16326171843135,-1.7572353062911255,44.98339304207008,18.587802491151855,22.395545442359854
40.93700548203563,11.587466152912752,-2.82692634514024,-18.23551169869179,20.492837075017924,18.495518920809403,-9.851890993437578,38.677621128142746,-23.14656681579752,1.4006069300836472,56.6556584366891,-3.4476649599730997,-23.283900954668063,42.65452083159681,7.110683482652231,41.3327827710157,26.120994643390183,24.85396904373598
42.225012038645886,14.767989502963193,-2.9943129596323423,-13.576996710025348,24.019204538890627,22.187127330902385,1.2511780148669658,36.27242095740315,-23.912658525028167,10.942846337312432,50.54790876387664,2.8435952956745325,-24.76154909849525,52.57098005052034,15.199578297135755,40.72092159296342,35.60982745024039,25.84859813087018
45.957842216558895,17.46401315593031,6.60228841795001,-24.741128999440793,32.3309788109782,26.959892737846438,-4.4425835676774765,39.052748054359036,-21.84848884370029,20.195016368638065,42.68170602871638,4.254781237226773,-29.172852143614033,58.19775272911055,26.70875851474758,38.167376935320355,43.538751030789825,27.332531188365643
53.79564231797221,17.136431180599367,-11.53782633555183,-14.911016930320244,37.615533523147676,32.61837342507314,3.3407908899768533,33.63968615017263,-20.46965446900701,20.270376938780046,39.3070080452095,5.375499717598114,-30.951388842077854,60.999773708579816,37.04833459964042,40.11766452228341,52.056361441321386,30.477603206849466
62.125036779564304,10.26955694691223,-13.859437788511524,-19.24352010875638,34.111051749011594,40.23667374072164,-3.035772001601388,38.393077351903464,-27.198061638526223,22.1067076416701,36.81033852082012,7.572651305124602,-36.0543502462002,60.781790025922795,46.413643859254655,38.56394720111091,52.568900069155916,35.96735884391757
75.24292301096841,4.871313885787917,-14.034762885194635,-23.578336205095322,36.0755500876746,36.82617891744565,1.8188070816738104,38.176151629307256,-22.892711225642675,24.53222643213246,35.87515948511083,4.986463114744781,-38.62233979083001,64.08692644200912,46.01550896791312,41.416592097059535,54.84225994053375,36.86803734073016
84.45771493683675,6.898809634926359,-7.96231041471863,-37.77896387644712,34.719815168092346,35.4728862981557,4.525484383025404,39.82512312132363,-20.834973807182674,26.863437815257228,34.74348733750649,4.84329893489466,-40.99921000425683,61.83306283895273,50.20963436340588,43.4998217725435,53.01709190940157,41.67579914835388
85.66773616758294,12.055085894669983,-12.244030523701944,-43.29049639511215,31.80166617010101,40.76656536334367,-9.076046084994532,47.34412405663013,-23.466210810787793,33.59270408945457,30.485443594676514,1.576358269973543,-42.20844916196152,60.36799548684145,49.81620636074968,42.860556819496814,52.46468296405972,44.238141926126794
85.70897307011832,9.793085803126631,-4.418777651780562,-44.312277570296935,29.469549770870223,36.10525155762298,1.3469283143375224,46.18230851567849,-28.83318539806191,40.227872748201335,29.74160643918296,5.634709861722996,-43.22669925258557,58.617525767372385,52.55019747995039,45.16301416381634,53.86874436461993,46.99644266412763
82.82352671930568,15.54270821328386,0.766994517145605,-50.219508619608696,29.578935892206882,29.98501516831971,2.5908414560476256,52.45335339420262,-30.88103572409613,45.792466946016006,27.238308029672343,6.763981578412379,-43.37041960008756,59.51141569968621,52.64980918377403,45.81734062744685,56.64343233963652,44.09116861753019
75.15583628754919,18.170943531790382,9.367930792835924,-52.516021601697,31.54384735280942,25.237773242552617,1.1988269504754552,50.23918917740026,-28.63310255507111,40.32549449627447,27.760626179761076,10.725670889392788,-44.59282744630393,57.87382810597467,49.33378469596577,45.60485136764254,56.2965889058463,40.405136621546944
72.9598965779307,14.650371504400763,6.051630833276582,-42.80330371711325,29.602443086431045,35.82842095952207,-2.6337352664546243,43.93454860808483,-28.339399601806353,37.49913282158406,27.890387106201604,13.808474872395092,-42.4017281438573,57.122800131067635,48.75456374720837,43.25604165320468,58.59011400369317,37.207825288557046
69.30193601601232,11.231054136896764,9.568245638289524,-31.726099020954972,32.64153933875578,31.48289304717545,0.1753884643230883,46.43038009429996,-22.08956848610878,39.754915477149844,25.869597343251193,14.840192435832176,-39.82457203130983,56.77005247335252,49.44727924879426,44.33744125375634,64.59833108366824,32.05771727492097
59.88493794827821,12.502868842094358,11.909705538856954,-26.218155106370197,32.55550181777852,24.994183548449904,2.204273024895299,54.797070389780544,-21.700114631903972,56.37041383837234,18.377738484463006,5.031319531810237,-39.59583526677625,57.69450733366615,50.14237646909576,46.309980244956606,71.29393338733183,27.493838169085173
52.42378376150526,9.969552889306824,20.693179514916885,-23.838074321403678,33.9341986581897,26.518523525088202,-4.5549539010364075,51.74931068156125,-17.991129696054138,68.79073912259575,9.711594927836167,-1.2627625101684217,-38.199897733377824,53.54840727703348,49.08200882880341,43.21656059138071,79.94654945272359,19.512143178893822
42.52379114909078,9.978817132590091,16.19166963404632,-9.937239457345903,37.65650004720746,17.012475835160373,-4.476992337844109,55.64685953728952,-15.845420352120541,79.65272772004886,1.6288490784778595,-6.6791179881388025,-35.63681711594285,51.55841388862912,49.098240375168785,40.819005933994234,87.13823088940833,12.995440104156938
33.5052354529386,8.233675885569424,6.705949812848807,6.40213772191408,37.08162633557201,19.620743275775553,-3.1282728060600364,49.9856545323491,-19.26687412763342,87.19861307095147,-2.4526356445517656,-10.632104425607018,-30.14881100488264,50.357300780835644,44.331593120944135,39.01966844077455,87.69318446622573,10.482749257030697
25.368025132738204,6.980209239252826,8.44707145424296,8.675858920706574,42.36592531612302,9.831047761709751,-3.8290987539124943,51.36759940538059,-17.610718127188807,85.66665643425154,-5.462749316506262,-13.12202424372504,-26.61882262764348,48.48017701571783,39.56727960036399,38.30683974089658,89.81472173360368,7.384074235999499
21.23711272946333,-1.3989372258745938,5.203716878985978,21.68895147653315,42.96230000248779,8.737272268767907,-3.259048316682387,50.41763130467273,-17.419942404326633,83.55314411854297,-7.303992269691506,-12.098365585523329,-24.460961158513573,46.6106151699879,38.613931811391396,38.09456943641342,87.44811848342222,8.386902313266052
19.54987577615178,-6.454438703087138,-0.4851447304032046,29.42550873929021,45.21843858302495,5.303899797552756,1.0233796262111552,44.69437925669111,-11.565454168129449,79.68624099101599,-13.738329262469406,-12.346656478568736,-20.354918536276145,42.40479116038057,36.881612993603156,37.308611645804504,83.52315684024285,5.776186170434094
15.813956248335398,-12.190318567715451,-5.689912363026446,31.88549467054567,46.49751329348655,10.468401527394615,2.279857472346735,34.881512353405085,-7.957453478260094,74.55428819489524,-21.543212795681413,-15.234401932914459,-12.835883350440554,38.01113029760078,35.542189985768744,33.40984771373512,76.86798804002999,3.5558057612501415
12.958981151643698,-13.723748426180038,-14.121710356087792,36.29554707381115,45.92053185117001,-3.6018774309745183,12.034053807900156,31.819097105434494,-5.130998307776131,72.35661557170528,-30.621142709470483,-15.195405111367965,-7.177427952996219,30.011560125209982,33.716714060663016,29.6209591006834,69.43580517652202,1.139725758442145
15.281782770266993,-13.886863883112554,-19.432914717854597,39.432926478017635,43.09678686175086,13.093623811001383,7.043480445027241,20.272575923053722,3.750028011038811,70.16353240253177,-38.92146351896253,-13.597166247383175,-3.086633309836376,29.148374009978852,32.77236154518359,24.67236479553609,66.10952771496727,-0.4955667662891887
12.039898464321485,-13.363332733046967,-24.944016523895385,41.981203793503894,51.01467755618255,8.405466965727264,7.132711246228562,20.750116704608104,2.4745143043958446,72.46733060196325,-44.58883452508729,-14.639257380477467,5.198253147257347,26.144022183707555,28.50981467099261,27.45088247081678,62.59224172567947,-1.2525057937183615
12.217726303220395,-15.473584175681374,-28.11604112604023,46.4794476325136,45.74797366775674,4.013462422905338,15.71981831499141,15.868676858904315,9.792819096835796,73.21326046180889,-50.74845891573342,-17.150072008983507,3.614462711116918,24.31879704716413,28.64399712849754,24.772674377805814,58.49333708898429,-0.9358689033301459
15.912807351945958,-12.405067407723351,-34.51560488742241,46.09158406520514,39.50380511463716,4.116682344397397,12.882672383017203,21.448838218734586,17.40410552058233,71.62008449862333,-53.68949705152468,-20.250973845756157,7.201233094674748,22.69604422999226,24.97161820335805,23.083102532786647,55.27769499317559,0.06361859811879
14.23816808079183,-10.700921753585117,-41.017783779075884,49.704435716559985,39.21578024973432,6.371127685993823,12.195747510334348,20.986463504688622,14.370776248922233,73.0589970757419,-53.99804869385389,-21.207826366195725,12.345173389363445,20.00613004613978,25.695884845036524,20.721930670235416,52.066405163076716,2.917754011952937
18.424327079607554,-5.380675485991366,-42.25152413598132,44.427149444074274,37.75478932669692,7.163246292451166,13.36611705983653,17.11832547958035,19.24786990266253,65.61576674653466,-50.01408427847294,-19.630275469087103,17.19073164154389,16.346623191285254,23.78539395049056,18.079729375267952,46.41802784853938,4.892023852045588
19.1936753160829,-2.4015260179483278,-41.43965172684761,40.709072183047525,36.097311599064774,3.7584033092809968,19.225900426143937,14.727318009923131,21.09778590999201,55.931126877598274,-42.61667405643991,-18.350668976883533,22.030825702301478,13.279952602881316,22.2674871545702,16.23066788468101,40.188058312204184,8.81840469074049
18.401584100264987,4.779517768513653,-38.7776006003374,31.225842259333675,38.63784388985928,3.480708885747518,20.59531326177261,10.395420240574957,19.627615610851493,50.059858588862845,-35.61461894001447,-18.44351173198824,29.111527639145756,14.712327245587126,19.384274428806854,9.901156964434094,36.892167936312994,7.3724670495843165
15.657294848837935,2.3926348723690705,-38.660085786933195,32.383928869088614,33.55969492824123,5.939309600739602,19.03692088050837,6.564069028243985,16.10697233530081,43.90033224129542,-31.05887887180688,-17.174652901485878,27.00682520955602,12.440390698615609,17.186515318677106,8.466263210902056,32.233403529900315,11.491777833946628
17.308431345121285,7.527848042670257,-40.89190662691075,25.335356964219777,28.28474513258869,3.809650516107258,20.312569622931615,3.233251146122612,16.98132770411384,36.86659109016924,-27.58239114755775,-16.985797921679477,20.306574763735505,13.69070400607773,16.357758826041884,5.2851788219106695,26.993009136807782,14.24253653743088
12.124222615586135,6.220016567172221,-42.73875926246633,23.947494325910675,23.008199153316284,-0.36939338624907947,13.582288165815733,5.285833913046929,8.676314592477377,25.735913701122456,-21.864936431418148,-12.994317616029493,11.647476964956457,10.94350410830733,15.53073934228334,3.3852074303961928,18.631860501406663,17.675453837855294
15.925090348065332,1.3987867180330191,-39.12255207593621,18.063904487476083,22.222199336848984,-1.422189840579012,9.881437099960339,2.8583595459572138,7.403174524016978,19.004501804790266,-19.570805571619996,-10.571641279595354,7.767856589217599,7.030743194661028,16.170263773274048,2.570942585045998,13.107051749949463,16.71222453464667
8.398091200065622,4.587683878622039,-44.692054927976585,17.938618446901515,19.969507098514445,8.170677617002653,-0.6533812837541486,-5.318754825412441,1.5406909151331925,16.37935492962031,-23.434555229607838,-8.253152017575271,0.2690876331384615,10.253201836349078,16.323116292171655,-4.677357155300051,10.125576759800047,17.01689405760676
15.813022877678012,1.7239035345790814,-45.87294872520211,16.051958226963556,18.00784272768145,8.682114521576125,5.80635371306629,-7.624276470213331,6.8118121820188176,18.251071263405933,-23.98352249815109,-13.363425033293204,2.334903524319916,14.848941100813704,12.864186487819424,-5.175996620836621,5.781088277724955,22.20269457555502
6.333326890913799,3.6473629661219853,-35.82929637490094,14.747677293330078,12.626090613153178,9.780004895694807,6.799391994383912,-5.913746771656484,3.0014360608226847,20.322672018519874,-23.366313431430555,-11.058723872481032,4.004152057609719,14.665386315563083,10.969270286854815,-6.347067928449235,5.054088795373367,22.992035911537823
5.05690662412384,5.963370092217074,-31.065358602910884,16.857817463945228,7.632778830053521,13.026639172990924,9.650092210951971,-2.042712966149878,7.395030123369802,22.984744562292438,-20.801799705480214,-12.765239402836594,8.011185946878637,17.222041795013247,7.415596521832274,-4.3820270158777035,5.796061306472808,20.94733647129945
2.4131672749122792,9.55074894172427,-29.432765697128083,13.690806838281727,1.7582308139305098,3.5778064250563197,12.307667938892017,5.941923842775893,8.761999375655215,22.233272665298507,-16.778401390286373,-17.99491329290288,13.965308844130831,16.561639231615708,0.1522855995128367,-7.093604654607859,4.198302896210073,17.728671907198976
-3.4535247346717455,9.52651506066184,-15.989981927154577,7.590397739178853,0.08052111171695486,-3.5274366720464627,20.82692314040415,5.149280437745567,11.399326994038052,21.583880883930927,-10.710301137403142,-24.599500602573112,24.991501591758883,9.754295932304537,-4.570635332149216,-7.6458741741003635,3.4834637564811146,14.019540060475471
-9.125285069632916,9.796878837215248,-15.83514297767825,19.845943637075415,-6.970938591735866,0.597528193378654,13.820834731309901,9.642004386595438,7.592091541166257,25.33345058116279,-9.140694306865633,-19.102453388501516,30.054371182355588,0.8038245803542878,-5.190711684343945,-8.578055358827264,1.4053565921153535,14.312090316207914
-13.235041800272832,15.830572777562962,-5.921116627001851,14.226388597268816,-8.55627060675485,-9.63386352826494,15.508542185901831,20.298942965613627,5.152949622036477,23.911459000945687,0.7234586516836483,-18.887064327122282,34.3297078703123,-2.184341069470932,-5.907296430499937,-8.620719353858199,-2.7196859442324524,20.364055106085807
-13.927433967182097,20.88911019457197,3.9862306496462523,11.923427402305903,-7.507682390519438,-3.0690298147666617,11.827348741991328,22.66667299837767,10.917977739351391,23.079643669976786,8.823288497730687,-19.9495756277264,39.672937077442306,0.5943209725382843,-5.548567592544671,-10.801380922368338,-2.9346086193651217,24.265050454230433
-11.886201335885382,23.702836223899453,11.152391625777014,15.96441466656658,-2.262784465594425,-5.294535970649477,15.472776321102439,25.631966075264714,17.465219575314727,23.130903853520408,16.81885724645417,-18.481539494937238,45.2050657735839,3.084864596466616,-3.333334772175032,-11.40917363777028,-3.2434492974850784,27.968124104414805
-10.627157430026891,21.14659736798758,16.0655664260755,24.68913296070582,1.3188231776884365,-1.3689853070159632,8.86644527828079,30.952573758448903,22.646233962081887,24.553449594051195,24.807705547435695,-20.733249778828466,50.047099147835155,4.701173611095925,-2.8750063607537477,-12.10440949079581,0.9436318316107091,32.645061948778235
-7.123046293489068,26.794712181067084,23.02260893565571,19.249602062523675,2.7487151926629956,-2.132624554989418,3.727295880646949,44.48786783109946,31.636907370027334,29.886298889668346,32.7897188262359,-32.36904820017199,49.706704179447286,9.935330945831723,0.025628112810821335,-10.836408888692922,3.669435330303692,34.6824207912471
-13.776533839650554,27.463276970761882,23.624868687181916,19.177333088405693,0.2689146995172287,-13.054524621449318,12.555528183301396,55.593057267357366,28.32373599620131,33.17224188019942,30.315406872801013,-35.32243984249672,51.41047480534409,14.880850674717475,-3.127727313140614,-7.800622638219664,10.891002889817361,30.271442249283517
-11.056203704407054,29.011645991786075,19.23947106685455,16.757327116677217,2.766137734810581,-10.79472281660825,7.225720209065448,54.69758160417674,34.484416242622586,33.043978152649984,25.587910451097322,-39.164064375449186,52.81454454601888,19.43989569833287,-4.034237377706642,-14.325486135228218,9.42445611105974,28.10355909388408
-16.44292160688218,18.353570606038566,15.921114805536703,22.048293392632655,3.8924922675235827,5.623121451111759,13.812493623839659,36.9184474826321,33.712465108245866,27.938887607568965,21.82982823980255,-43.60112375827788,60.26658389861581,26.44435824932191,-5.330733663977746,-21.133653658882693,7.570616548386539,25.248933564142405
-26.90942623287912,18.53616480071892,31.345771511541237,-3.426956220575338,5.015047284946252,4.557664096923153,25.968098235983454,25.00979774717187,31.086099380585384,23.423361109359025,17.576190113153974,-52.540096744275075,60.094424734606946,35.01513373301936,-6.333684406500783,-28.225266696132728,7.5755231380468615,19.656648240518756
-36.79169550869372,17.742728192571676,15.219627444953385,8.008353146880143,2.910957689024208,0.6573305272149579,28.848558335467395,29.03026494499463,27.581907693109493,14.223776447238244,15.268338339189548,-52.89500920380435,64.30988269525646,30.796346888122706,-8.31271232739158,-25.346405759320398,9.048453252501272,12.59614968984155
-44.42967276324095,15.191883983103189,10.121381518408676,16.70513943969604,2.1699974485754865,0.46495451736292104,46.4776766700208,20.36601263440057,18.51232666377546,8.73859126251093,16.371040643632973,-46.03322639192716,62.36583358615977,29.51070406884873,-2.381034728869164,-20.016861655815525,4.957955506013455,13.051846918300772
-53.33915944833907,15.766403345069058,17.02753712244657,11.335064744144507,-0.33302092741068634,13.062472022439355,43.015059178790295,21.087567804031558,9.834483485457241,3.5496730294872023,19.224020001798408,-41.81833075339285,61.586517831104565,29.693147204435256,0.035321712394353,-14.482908670121532,2.335290817082111,10.96489072441335
-53.070897917931305,13.509047436917468,12.304848910179214,21.87901474241804,4.190959534176759,25.363513058391977,38.18756385752678,15.374250764838365,13.267308911723674,1.1960079212986443,17.28411539482168,-37.12541905622811,69.10085859634125,32.613032980916095,-2.2356062634351908,-16.361998098927977,7.23514058157177,6.335180414811537
-51.24231004959426,12.618981634071659,18.316868921548597,19.820888309249117,0.7025075362744388,21.254318907009527,42.346903595662305,14.944861246002155,11.42772402423363,5.486129445903856,12.992680991828545,-30.392105646655025,70.45541676394058,32.703674507666236,-5.7758673003793675,-18.13463268632039,8.817395185875753,2.482979891797793
-43.36125540828079,12.021852691693812,19.340632330808084,20.102278238787335,6.9751929491249545,21.145127012662122,40.64909231219965,13.451513957274017,18.76907007962031,2.454859282926151,14.162249850973684,-27.28267136047247,70.43532638775754,22.933517231904542,-0.8197559776668335,-10.328161410777295,5.617086261260972,1.2636885458001927
-37.72875485941833,10.05736037908409,15.571387753708713,14.2269192753154,6.114088531794014,21.031741280164653,35.63321970363042,11.18704705502185,16.93168454071832,5.188210172144146,9.073810273750148,-29.06679243788029,70.99364551464475,12.48219011734156,-3.4808669296280534,-6.028872131791232,4.37249396052264,-3.5728849133641276
-37.95825497233531,16.588817367441447,16.09123997153122,12.64414736347599,5.63870287441136,23.160062627507852,31.400897397624515,7.174745405152848,21.93142629835693,8.510194654617692,1.926565568254262,-25.00223679107003,71.15369855204791,4.572198852236156,-4.579438887651982,-3.7720502119803747,1.5678342314821805,-5.679081385609745
-35.94427062823887,15.502577129792614,17.872735819021205,10.568690633535962,11.017732979837161,18.35003817456421,21.018410539725643,1.6097843035528072,22.342326173290914,10.955816770449303,-0.15054529386483573,-25.147864695716063,73.45448724030287,-8.218645452974059,-8.119504170310996,-5.120371619383672,-5.23844316593312,-9.351933372139865
-33.73771871812359,15.39240118913747,17.20481980214727,8.488794867787425,8.090671199310776,14.609379262272755,16.69295956847762,-1.8946422815455861,31.641135644543468,10.96242036118256,-5.458502726344575,-29.796756138381703,73.20833937603973,-12.218460493414504,-13.612837594496732,-9.878673539659278,-11.261216869243327,-13.126664471261812
-24.697974210986203,12.840148945409975,21.216447459695736,1.912160826004036,8.57631229940485,14.672281383653184,9.635329096976331,-3.6316519993786756,46.40981408863353,9.115817262543352,-9.700435010512738,-34.554413320486816,76.95822185281358,-15.728355943071271,-21.15715884020485,-10.820436288928658,-18.453750591659407,-17.491650689845034
-25.133977881473953,13.705165148176095,15.649531146458877,12.128132431463284,10.814342090270104,14.436900508582932,11.173796594956494,-9.460855477869409,50.144180669455366,9.419838097872962,-15.317850745044888,-27.897317177602893,77.37970161576514,-11.13123005395601,-27.72513820491244,-11.559149641003955,-18.222272957079085,-19.810217798686864
-23.131580406694585,9.881737869203741,23.648899629801612,13.159707191185095,17.343730816669204,11.656892126724943,10.17535777561903,-11.76509677568474,52.902956866520114,14.706418665442968,-22.31081117637317,-21.73980007203548,74.66799093862846,0.9867687544045047,-31.07070609199708,-17.173169657755274,-10.859867629640096,-21.05902524755924
-14.198617452568502,5.764346208682962,23.53448092983685,20.046133327347178,21.230649706804563,25.765932669559,9.765036978076836,-21.87282288856126,64.45188797783618,14.916671297907172,-26.480090781920165,-17.742125480463937,77.80749824865596,11.543268896995244,-32.95175832267972,-21.510212357140517,0.1176757693166266,-26.99995889595887
-10.640052668134354,0.7669249415417276,21.946949724865856,21.36141138951946,28.529751375326644,23.071890741165845,15.02101200253866,-31.678591656984665,64.67344790968485,16.39820708256191,-29.77889763399522,-17.857523970396045,81.62225941379063,15.850497542581614,-35.126188683365555,-27.40250581100863,4.456183168252554,-27.964978657727123
-3.666774457098306,-3.352804838969213,21.23004219107466,26.96892923389357,32.404868861334535,23.78971049132443,23.013524711235085,-39.229399468094144,67.23968581110695,16.51412360671551,-32.50025410246894,-10.074163186388027,85.52622408597851,18.69348332198277,-36.226841140791386,-28.014161671418535,2.253200719748417,-25.516681417223083
-3.72824260399792,-5.32541005095506,20.602448935116428,31.595125006876778,43.59823073136282,32.70441630231974,16.554785757369878,-50.38486262847269,62.09181720927482,15.166618478773557,-30.640237790404214,-3.474276610537302,95.37875301771349,14.700850783017815,-39.3788134796096,-28.228220158590545,2.8837598082929574,-31.471723491653826
-3.011916011982011,-5.248665150486648,24.556380701811545,31.528960769157457,45.41024306117173,36.04606529509355,6.875407126954901,-59.18801139346732,53.52674275468501,13.332123414277646,-25.370782253187325,6.336676392793393,96.33576657536963,11.587362769363175,-47.707201170399074,-31.072224084629433,3.906305329819663,-35.38079303442173
-12.162562947586508,-1.8531352734880393,23.91196684774518,32.92283047359806,52.58710693279707,32.349593409618834,1.3973479977106145,-64.07647463627887,39.88423837714109,1.147060130465789,-12.68795647597094,14.47575706870272,99.43248707644776,7.204351717082783,-48.71185887007025,-35.66740621966116,2.9769401387627425,-37.341610597635345
-8.133027760289139,-1.3890304549669228,24.333315527207567,29.62425302624824,52.237885852739836,28.353190522185734,5.589411909486348,-69.93329220768327,36.105893375613554,-6.544742048728587,-2.8458550994985323,17.720214110884726,92.9498845115737,8.192348253398563,-49.32652906332659,-35.56850762496543,6.931595031775444,-35.98702697770811
-1.275098312911485,-4.637726057975341,20.937501326525165,25.93012581801235,48.17111998723871,28.353606980426107,10.662371616601252,-67.48113159602056,40.92210986073082,-7.497302729282971,-6.293883783102974,13.823879425378543,85.87237123823141,9.961244703034204,-46.03557352159008,-30.092075431478364,10.594299289209761,-38.34845485949654
5.383771699777903,-2.1265333749246143,23.099631334906714,9.340215311909779,44.48832604191304,26.686507829713793,7.924656999498289,-64.43510687454678,50.231213292781476,-14.40627601339073,-8.578719935224747,8.450867627577672,75.66074808764517,7.823277700954012,-40.987500377646114,-27.832141414423095,8.20313642404517,-39.9336897259489
9.109105503382022,0.48028806759774234,14.999118208981223,11.300271501469888,42.165976590740385,17.199273830237573,0.9895726947012307,-48.39283730611612,51.337645961623515,-12.623148823094475,-4.9151526707563775,2.0894388137330964,67.00249084407537,-1.4444477266256932,-34.47531809698364,-19.120739210951506,3.371333830173249,-37.42241598224714
1.5999388775647958,7.186596634864836,15.288559483070951,0.07148707521546704,30.852250148686004,6.141823384843078,-0.9630858606689863,-41.9134126530946,43.36243483322916,-13.378709081542823,0.009232719583069482,-5.846376400477645,45.05352983780631,-8.076344585423492,-27.963925393868013,-14.895684838798191,-0.48319559544765056,-38.13900766366555
1.6065054050493686,5.882725317893678,13.909179789144156,-6.963101323599041,26.85589233965352,-10.880613899279265,-7.40615186802939,-35.524183326673004,34.704090473642665,-16.087157827446454,2.971721713895791,-7.153345171527455,26.903879405628025,-19.10395441409252,-22.039298668943914,-12.71568307696916,-6.7785796250765955,-34.27088496167606
-7.277743953279038,1.6467712516553412,10.177349604586801,-10.584795950898506,11.621839871439583,-31.329103747938923,-7.694964216416789,-32.740978486670116,15.69443998770041,-20.162695582795877,4.558256370696357,-6.128419823459403,0.4438929846096755,-30.621148843802345,-20.900748043670593,-9.065202676773168,-14.928977386941973,-35.77917258179894
-19.48636283303856,-4.154160543003085,-0.008578609090267975,-7.2779576278233655,-12.017920874930986,-51.8834446104643,-6.907757998035908,-33.75926334363876,-8.197741147322148,-21.894474482528565,5.159468031291844,-5.994312014319206,-24.951369325476705,-49.65946315057077,-18.200545034528492,-11.757009316545162,-27.180621017528715,-36.51146385456353
-32.9685795989776,-6.832599736974782,-3.4648293972863566,-13.839756154642348,-37.032115835635075,-72.05550380950936,-21.93935478841142,-29.106385963388206,-33.359175673096374,-28.99760137300339,10.634826296357996,-5.383814138061993,-60.317310846281345,-72.60573545036185,-14.427000297356386,-12.783313802996808,-40.60388081461101,-34.514630631434514
-42.939201934643215,-12.443425140335005,-8.492327046237298,-12.398862513235986,-68.40136785175432,-94.67750601339472,-16.75408082181489,-25.03258962413182,-57.15316469359716,-21.745357058830706,10.925593985018953,-8.300888866965341,-93.93507674433897,-84.71381777173954,-13.68175820691371,-12.534891588157175,-43.57758644041257,-29.59337973617511
-49.788893756594355,-16.787450440650286,-13.919191857338976,-12.525771498257974,-90.6958266710075,-103.73372600757033,-14.301537080421781,-22.319283134336928,-72.06012307340632,-13.419337275802317,5.5434973620132695,-13.085344565569187,-122.38671496646558,-86.47216567784608,-11.472579347589184,-10.718912901490905,-41.375354692024835,-27.997824453979355
-47.56056184775687,-19.767111873229023,-15.546150895407667,-14.122860369717866,-108.79844632203707,-104.49781969026856,-11.944996227317478,-18.915799750772216,-73.8808294229247,-10.172121325795086,-1.7027917771175005,-11.240942460197434,-141.96129469189034,-83.25211761076358,-11.803445049165509,-7.140204638632865,-41.22395512191852,-29.044374102185827
-45.23874318616592,-23.82394425136536,-20.795198910430727,-11.721329327152414,-113.92009129652094,-97.7511804935537,-19.352605677110688,-16.775438928121027,-71.11156897643274,-9.269432590662774,-7.199912098091864,-13.998302009850757,-150.02211429826886,-79.35077255916728,-12.037607679751119,-6.388821858178172,-38.92419950944219,-28.436097171524885
-45.167244362613786,-25.735330670669228,-21.365431002362246,-18.50500549467359,-115.9242483043736,-102.83016589510504,-23.242943305940592,-14.433478013204123,-67.8540289065608,-12.5669065112445,-13.779908041558452,-16.572168070879222,-151.9404005409723,-81.40901079739065,-15.690754621173294,-7.39066955914862,-41.800510673014614,-30.372281086300227
-52.22896915225493,-32.92334499259986,-23.60459971152894,-18.067419206210577,-112.17420696090154,-112.99651003591956,-20.979279962885563,-14.819791405119371,-68.9911584057174,-23.58035822578605,-15.680937786772285,-18.571878644243075,-150.74358775722882,-86.49724944082125,-18.075320488493645,-5.653630678346609,-49.26703207104282,-29.286434787710082
-52.84950439356612,-42.06770663956576,-21.555578651711627,-14.119593653220367,-116.43975068344629,-109.40238044377358,-29.065802769691125,-12.85631751038419,-59.28841216585431,-29.809731450127217,-25.207836256104976,-16.286403465902332,-156.00217190938054,-88.17022220484806,-19.288966591353482,-4.302890701780543,-52.53465447915712,-26.448104553094062
-49.665617756934616,-46.52776873713808,-21.175481980603546,-9.102999714750101,-113.0956764066239,-109.04032834794528,-26.310810272237482,-12.840136443806232,-60.230555023760274,-27.153533361236818,-31.129917765247328,-7.95786203910745,-157.26680499059756,-80.08031567848045,-20.405929094797482,-3.5339017068084235,-53.45895974428395,-22.638543487504347
-49.61101347788111,-43.7645062636477,-17.093122167568655,-6.435683904508647,-102.72795909248411,-97.45710565361335,-30.68335384729783,-14.478413147913466,-64.59097596690174,-24.108117276651203,-32.47055406458133,4.265321494601984,-150.43588461923235,-72.09109635414138,-23.477019049326184,0.6571682813161637,-53.50489606664715,-20.39683955501379
-44.87307307123028,-29.57870928959005,-11.456953765913621,-13.637315982142624,-91.00076924467737,-88.4225441203657,-29.09732246585915,-18.357230803025452,-59.96720341959879,-20.282979682883095,-28.155453842979355,8.859584836657753,-140.00168185251061,-67.32774162012751,-21.17790197043618,1.629458809067449,-52.28191182649666,-17.086216042636106
-34.27990047367404,-14.615140977686675,-12.763180460957216,-18.598358028778506,-81.42980005197487,-69.63185182143268,-39.03347664999872,-19.105548982901624,-62.1798522967771,-5.717155918987311,-22.38383840006459,10.024266674804906,-127.13609671345209,-65.30208738748351,-19.270378109326394,2.5078847038706176,-47.34864004411615,-13.390254971233242
-22.421402444953962,-3.85441207849831,-10.953031268019387,-26.69000563150395,-71.57361545881402,-70.9683734982633,-30.70622951798211,-11.157010291634258,-49.74428031052962,-5.118176328905269,-22.577629074281596,13.521234290812487,-115.0618337545977,-64.06109833162905,-12.578578422139035,7.296281741584096,-38.90046985819725,-13.117581638455595
-20.235235080214935,-7.745963237243677,-9.053868273884579,-29.90434193429702,-68.26825758298963,-60.59575506917272,-28.33472325095051,-11.211220567835547,-41.2155181130134,-12.822011202150462,-26.68594100184544,13.784061791439974,-110.02897934576634,-60.9681297871484,-4.813485865943576,7.400638527817353,-34.26180253486707,-14.217352552956552
-9.654701958689696,-16.914710232809462,-5.9914243114861225,-41.03454662569686,-75.32237143223475,-60.877681207305656,-17.660949131208305,-5.4009114451725955,-32.39434235244829,-17.598136644844523,-35.880589317362364,12.27768518604313,-109.30309955135777,-53.38653191681807,-4.861941324969312,8.289659577126695,-33.72567912019991,-11.220698968138695
-1.0315054299117747,-23.450431265587035,-9.57828233981267,-46.31089191613265,-64.5128560736022,-67.32195107366633,-11.771064352251807,-1.148200344615823,-22.694865486779094,-28.138204633980205,-40.102743601471026,10.564702770855408,-100.09100492918807,-47.27353084561745,-5.497256314570219,8.107720245137742,-35.4366674287113,-10.475334377093962
-0.908692456365138,-25.59533842426606,-13.17367549418909,-45.245100466300286,-54.19934545154551,-46.52966583665835,-27.559876607393996,1.5467851457869148,-10.749937462605677,-34.38357780337651,-48.043854098019644,8.254562522949477,-84.34581649056592,-39.699493190518524,-10.332749315623191,7.635956246790107,-41.15266870118526,-7.879589797007085
-2.9384848713980034,-33.50588429767817,-11.015752233485225,-44.86853867909344,-54.53821619131358,-49.7711805295563,-11.510961550951812,5.515993502535515,8.030297796195859,-44.34229736125261,-57.360040973859874,1.3433804573289478,-67.43866783197748,-35.15676868998737,-12.922989442326713,5.214061194894127,-39.25247081795905,-11.343694039709348
1.0823958930991537,-38.97886248017552,-17.460151095021764,-41.76319248353252,-46.58383124449996,-41.792085675826044,-19.875193325266856,9.978038435270157,29.54415809492894,-56.25662704184678,-63.949579643242764,-6.457761575404046,-57.670416443178624,-29.44616311767778,-14.244531986179856,3.0880397365976204,-40.380823455086166,-15.984707757341027
-2.9087331001116183,-47.97143499229863,-11.60806198590063,-42.08150404241222,-50.551300294076334,-41.63566866972589,-12.222281881976503,11.514776306340767,40.41247652909237,-65.43909481417487,-71.71867480356926,-7.824441032006632,-56.21289650002115,-28.915513135328737,-9.707439038729289,1.9413741345205988,-43.658860010201295,-16.919687443794793
-6.024982702158887,-54.1358846648783,-17.48323078990341,-24.729403708700588,-50.717677647263415,-30.746980416488128,-11.306493567945138,12.567529542273117,48.252500931204246,-70.52258815985016,-72.36630826083288,-7.737106376099145,-55.644052805148476,-22.920203626922497,-6.14772633943722,4.5083606819593225,-42.93419299405835,-20.105694636048824
-5.8248715530828115,-49.65962426490853,-17.800174780850107,-20.859710496288056,-52.94237124809472,-34.02875976788195,2.7943392032320897,16.944830608664773,52.08759861787717,-65.3547615624314,-73.60732587777699,-7.269892272736648,-54.205970904724055,-15.854906524338123,-4.541943337315864,7.370859562168196,-40.941286382309805,-20.4644621722029
-3.8708826722368492,-39.230253315834716,-16.465136270716798,-19.632412851562766,-51.95179981267896,-7.73034797158811,-3.0257673695912333,8.533034683634968,52.69897686181012,-54.62327486403471,-68.11727627273426,-9.15711083533228,-56.48848133848129,2.3390566486414315,-4.401771565504877,4.376315784986625,-28.10972604615119,-23.46475481507068
-5.24117485241095,-36.22690622311619,-14.942909458765255,-16.555250034100705,-45.206792021829514,3.2256918291701098,-7.965723009597243,-0.3630989470065362,42.66459342479487,-41.550917956320674,-61.26720909756341,-12.81270693924558,-56.925001637560904,19.747377634124938,-12.660879063856205,-0.4714190821105575,-15.767851449174806,-26.176767722373032
0.12304561080446064,-26.48923068381532,-27.78442108001004,-10.16334896897893,-25.871229335067536,6.359008955136169,-18.080314444458516,-10.329630939594278,32.43377321260813,-29.555792324703784,-53.25230868609522,-13.939627323752386,-43.40587280306785,19.96349685219954,-19.260485415593223,-5.219304397666944,-7.333722363863959,-28.60042436464447
0.1122680891274257,-22.126802513189332,-29.305604259660186,-7.292742235451103,-16.699281933188033,7.626734750370694,-25.06863905655955,-13.163423551406726,25.717457808173954,-21.47004910065023,-47.49045981448042,-15.369829812161774,-28.138205295242834,17.24538977840649,-25.567764200912443,-10.844030073183909,-2.7097172413191366,-30.247355687322777
-2.4413812231939964,-10.444127569681072,-30.737013197497213,-2.0839539615975315,-6.753193231360214,10.056274075983914,-27.85646544472633,-18.239730447839868,23.785146094947038,-17.782049721821824,-38.31737256536634,-13.392199759675892,-10.438280156775889,16.2805779365245,-36.07493516122118,-12.560477666623758,-0.626319042000592,-33.75423656852364
-7.049559411931277,0.16022035621286435,-27.293327992578796,4.291136640702682,9.924254896510263,6.713947876759427,-29.76415895488624,-21.164062089133502,14.624885166289783,-5.015094845169521,-28.369660206031178,-11.13166052263282,5.9830308575404985,15.213518776496883,-41.21150201499145,-14.275065889954465,6.631402662200941,-34.9216964037133
-2.6768852429035483,1.0923559037800104,-25.908152828655005,-0.2770143581489002,16.92666424003623,10.295288301424314,-41.24109840364154,-19.788055087281876,7.0258217047403715,2.8656938395494045,-24.77618746647449,-12.88502460369398,9.406928764706329,13.84885578353287,-42.24697627931469,-14.816009218550363,11.446115566595196,-33.84730156709178
6.379759602297167,-6.085197433571718,-19.84300353026176,-5.241353026658832,22.94568182573623,14.940862168378125,-42.26744613059337,-24.854165859018547,5.382505101660593,6.6415173518767645,-25.485987071889763,-11.327829769796097,5.595357396069623,12.284210057176772,-32.83356447710501,-14.281070971806317,18.3100495425578,-32.484112000799165
9.67105799985291,-9.653507339866781,-33.90284124519866,6.976533976494556,24.270427570938466,10.884931848566723,-39.28861051223108,-24.252937717136437,8.52299465439824,0.7458275512701107,-23.955831428171393,-12.221747386170406,1.6774761404797758,13.546939239374126,-26.350335477609658,-17.260268712278307,23.80515984029506,-35.81257419661671
9.736174351394755,-8.635989098576164,-31.465903836240788,2.9777217309493196,25.88156602423048,10.334756266628418,-44.21883185313648,-23.25798979454443,8.146335805177523,-1.8329491270287086,-24.287182508254713,-9.414201022324548,4.68479370924593,5.62511327628426,-26.801214044800364,-14.7691922977279,22.853222391565524,-37.48483350301463
9.993194708118846,-8.306149579621117,-34.99335722224223,-3.1750509142867127,24.361201716089013,13.973985900153373,-45.436833594584094,-27.631227992115445,7.572846330610272,-5.684775522492139,-24.13608749816494,-14.233346317943987,7.683768904620123,1.1165568647482758,-25.787591010204125,-17.745608729801774,19.458185162515434,-38.96565130735003
6.82884972250929,-14.32812286604328,-35.89120124613588,-2.594903304298219,19.611807855580807,12.427528751255686,-40.69648078031115,-33.075809040840525,7.193113145506506,-16.962134365491476,-24.088322026066056,-12.128034447878598,6.7682572731946,1.974405214462955,-32.68456509944918,-17.79105060270815,16.647420861386948,-42.59870560878062
4.4424910543644245,-21.03774147434052,-37.38201761909595,0.5189100421101873,14.758568475503289,12.726797796312596,-46.50192315818715,-25.33379824470821,7.59304007350736,-28.82902499624292,-21.60461045466914,-10.617762619520594,2.0360883776190803,2.6321516862098306,-32.35514158188054,-16.663453613216678,12.956048240108466,-42.23144809589961
-0.1932007038247221,-24.333358092272235,-27.551433672884176,-1.060253361728563,4.23513402561251,3.250582150891603,-33.65348674638231,-21.593051308270667,7.1124044314798205,-39.33232981189312,-17.563694656762728,-3.3546257934989363,-6.414901677578385,2.503838484262463,-32.41657863374426,-11.433180051281784,12.192706058981308,-39.91457785005947
-1.4140044760481878,-25.875128447586437,-33.54816817518788,7.1209842561137435,-0.1417621160888629,13.882214872643516,-42.28849178412247,-16.091853094023072,3.6026964415052696,-44.27279924197772,-13.137286521971149,0.09107247976784905,-12.725063705397503,4.323875029214168,-28.474231991346354,-7.764471454258523,8.30260331958474,-33.49950849621172
-1.0753436567855807,-28.495097568496313,-28.12557406242097,7.288948340807311,-3.93845923576923,14.152549876160009,-38.226717063680084,-13.810837990587538,-3.522068135218527,-41.59965006629258,-10.376014593282811,5.09066584792977,-15.331682798249169,-1.771173728933256,-21.60229058532499,-3.1183173015710075,4.313120809167199,-27.966666216312575
-2.2045330926521274,-24.868901979633694,-24.369646427134775,5.010166121486504,-4.420383728805582,10.31175551289607,-33.18707812629287,-20.804873663969705,-10.648588922517774,-39.32084238555193,-5.666355677230904,9.202871607396474,-21.07060354257588,-4.257693786203955,-15.31638675234852,-7.455895925249571,0.1265935431614409,-20.386197933495094
-3.824918945816492,-15.484793945177978,-17.006720753877268,1.3589106443055474,-6.177287623294049,7.633426761851325,-22.677304627260185,-22.913673736342115,-17.09329586693499,-32.45585297676781,2.1637725221339537,12.427853321031343,-20.957110595626474,-5.479466318244242,-10.300078429458033,-7.398183881926375,-4.3546415887764045,-13.394739624030251
-5.643450311788534,-6.202198028420977,-10.626559884602294,1.120450917863371,-5.4980102596373435,5.629355849538946,-21.346042367485303,-20.332637828158816,-20.805408580026587,-27.3524526247651,10.282487356547335,16.52361654132349,-18.409015720193604,-7.68261088413087,-5.772057682578367,-9.683650319054001,-8.544641679296728,-3.5741454195237736
-12.152304396962526,1.9046938149504875,-3.568826966027892,1.853384992369735,-3.554273312028318,2.346472705108006,-13.372721411066243,-21.851044927116487,-21.784957153817075,-19.323083675473832,12.049256508448728,17.09573176519863,-13.81673498128913,-11.160088408158519,0.025560422726332632,-11.480303978600222,-10.880884620435722,0.9701189849631291
-17.58959462994411,-2.6876852958238366,-4.622559087386183,1.409285925678926,-5.8147344514617565,4.523249825539629,-9.69499192037566,-24.92987444153094,-29.89540128589034,-21.551551169229725,15.96049937298801,11.995899994682713,-15.773929004877623,-15.032963146664379,6.604532224307476,-11.71399106081687,-14.390760329910478,5.511699880403469
-13.361359006473839,-13.33855937873706,-5.974973338456888,-1.9696405008387519,-10.4237163741818,1.3197700702957889,0.23419935450959173,-21.463612914972302,-31.659998550526648,-26.42055780398872,12.836586168088388,10.599437961945625,-21.83892831720876,-10.902649626532686,12.109404951186882,-9.70118687202093,-10.480385928127145,7.609283486637189
-4.7410337499391915,-27.80174763503168,-13.875997291292352,7.0489177574651585,-11.521570072601026,4.748030971732064,6.649096175297686,-14.284412161017194,-37.821123769926025,-30.023796773652315,13.615383167405625,14.8596764573992,-29.960689091498462,-4.628588745982913,23.37626378447318,-3.1958410338111207,-2.9584098546308244,10.388048424094322
11.982457781655956,-31.819164181440602,-10.649408165727976,7.1756219084506,-11.94018116106739,6.214250266982539,12.674764339941763,-5.345502762462406,-27.187068364100657,-23.474412964365833,13.414204131359597,13.936784540068885,-41.70149872705677,8.086187207919913,35.91289495703199,-0.6942527547354764,4.854809785620258,14.629388576346386
15.03152272518409,-25.781381186860486,-8.892878687687897,3.0980937289991832,-16.17161269557723,10.796732581174474,10.010314265120087,3.399886207320627,-26.51607172099415,-16.342860661975674,13.307486163225462,13.006802799402827,-44.853898264307325,11.030524101635496,39.17230355233465,2.686390968136358,9.150627774536197,17.891993244358943
15.832200433921706,-33.809798788937485,-8.117940550889873,9.07441519936741,-16.207732965802908,20.448738019122825,13.206767653152092,-3.5758987579027313,-35.90580767388299,-11.070575715269786,17.201741832792138,12.753517849845665,-42.933320073198395,5.474006814572789,42.432014477747686,8.899172729204626,7.194635576176651,22.129150695232994
18.77917343981592,-33.44307228377264,-7.3478329803394935,4.205883498446598,-20.935195391923006,8.998100587074518,22.166485158892705,7.12601802715821,-34.65284885995659,-11.954487713236613,17.87050214763522,10.930986099731435,-37.990325763435585,-0.8683654504766167,48.03585150994261,8.178248084925833,7.580724004948799,24.50892041022408
17.524773230438075,-33.37267337267435,-8.144892764269176,6.949866709859172,-21.17396767326673,6.914146532941878,20.971273390954934,12.946628465302403,-32.230007029798344,-12.158540634960804,17.560099536772945,9.785521931362837,-30.415290887849338,-6.336369957710865,45.8274459587914,10.582295602451591,5.816648145832767,22.29701991668076
16.561340725361074,-33.50087454847962,-4.2588338888880415,3.927311242202059,-22.880963557685966,6.189055353480093,27.590174528634954,8.417030236252717,-29.80918339671128,-9.143615882997182,14.512899529365463,7.16884328056123,-23.040030220711003,-11.906539585182278,45.37729077427871,8.884575592043245,3.0743134175499645,20.47412834841854
8.662288213484374,-36.07373158167296,-10.240465490212156,16.232347366133055,-25.470024657164423,5.065104682711478,27.960491618606675,10.334286960788141,-33.93345222741645,-8.5738419829988,15.272175833743155,5.815556884427094,-17.329146092749887,-20.41090095557457,45.708840974363405,9.921064678646484,-2.990052042539828,22.360743226797155
3.886448087250743,-29.079267814401,-7.5346193901446235,13.395820136307446,-29.72219753020391,4.518991553580584,31.750358089601406,11.08102835301452,-31.9073103054567,-4.687388912267252,14.955246654511704,2.307833582247456,-8.692457071544943,-26.185254034817717,45.650233980619824,6.855657591475747,-5.833364421812984,23.367084931123046
-1.8677195661032453,-28.82624898597831,-3.074794274095275,12.312580138199706,-31.926269409788674,-2.6758345895690816,37.006635723203864,10.461873446440709,-35.352029018557886,-0.4139626668852685,15.222498706713885,-0.9126897092251829,-5.039968800106372,-30.792068350603078,46.27573301264714,2.42270930808629,-10.631467442311145,23.493287280537444
-4.791477775194716,-27.111345949884097,-2.7202504690857587,10.443589221727066,-33.449226878999625,-4.897977963507358,34.15888190694019,10.820543530091207,-42.412108917452855,2.5862841323340575,18.027291678903296,-2.3809518661992106,-7.836272625830013,-34.32894418041244,44.46031613983507,4.337121260665869,-14.845242114208279,25.669215800654925
