Fp1||F7,F7||T7,T7||P7,P7||O1,Fp2||F8,F8||T8,T8||P8,P8||O2,Fp1||F3,F3||C3,C3||P3,P3||O1,Fp2||F4,F4||C4,C4||P4,P4||O2,Fz||Cz,Cz||Pz
7.851214587100223,-10.110764523343772,2.890841245600738,4.9219592924987206,-0.8303599314925894,-10.06952357333966,-6.845965423874713,-3.123510764049019,-3.5974693825942237,0.7500428421142846,-7.202954807261429,15.603631949734474,-27.67111271532123,-12.339912715841177,17.288185926889238,1.853479811364945,9.346471915287516,0.602168391285824
-5.69323420959334,-14.528185442775865,1.4078939162574855,0.03000426674868706,-19.990609864212683,-32.039540505269066,-23.72460192581478,16.250028391943253,-36.62603257362619,-8.340650342807491,-11.39440842808344,37.57756987529228,-71.49180166352923,-71.1476802111708,49.23060880967198,33.90414916152558,-10.23924502254878,27.992365638322717
-1.1725768011695799,-18.84740876989371,3.245569808822091,2.561823102296186,-10.53868438273062,-23.443028668083407,-26.05137956074674,10.723885711678573,-30.882094615154017,-8.544666961477697,-8.65259220528259,33.86676112210852,-62.58432266877222,-57.19824753423407,42.99375789118676,27.479605411791326,-8.044210732427814,24.132704324863553
-5.735712507115672,-17.69720882102537,0.8842345725366987,8.220495936437366,-5.9711998045223815,-29.788482943221787,-34.725071723399985,17.70100189940792,-30.897517461347054,-7.0887235860694116,-12.454294947208487,36.11234517559827,-70.38336749852971,-60.62969229358179,46.33225692643223,31.89705029380029,-3.8930631793844697,20.664270151202796
-3.8551080547753953,-11.565824422143738,6.1404863488276975,13.09973258918862,-4.335011726414328,-26.856770673548972,-35.78063857931951,21.06787400323898,-17.72663295842699,-3.97286469791215,-14.791601727067626,40.31038584464531,-69.00966789201553,-50.972783439201805,42.05832896829162,32.01957538674246,-1.1062851068464497,13.876046905668058
-1.2926173152563925,-11.586188240133911,9.541535862240176,16.906577937127462,-10.220043242863174,-30.077800594346165,-35.17521924809062,24.828491375871284,-17.834623156436074,-4.861284378596527,-11.66056402633229,47.92577980548465,-80.92453111893127,-54.98572605630791,45.69953643109689,39.566149034577556,-8.277880044791342,19.68622416803834
2.4400014700228363,-7.015899384376729,9.52487071146105,18.46915581805516,-8.196379588578436,-28.1232595203767,-30.076756174716238,18.4358378250724,-15.205554246980235,-1.5507782763777054,-8.33471767198434,48.50917881064801,-82.00651639404494,-44.250102478911614,41.142330273499795,37.15373114072508,-5.974082880691473,14.852237755584701
1.7762104855144836,-5.667527894949019,12.340597619948259,14.467118362911522,-10.959533988986138,-28.12214601783089,-30.25104019959004,18.394088816936645,-24.097393034259788,5.567976166612423,-7.060207551422602,48.50602299263953,-90.32232050894565,-39.762312003800645,42.64471493065285,36.501286192493744,5.609662993426445,10.507048061208735
3.1613743206750096,-4.220661813426436,16.1332307858573,16.814723697506622,-7.571845350391561,-23.043085191820943,-31.010516526902187,15.035143008862821,-27.615288459541844,9.65889000150234,-3.149477981734299,52.99454343053144,-89.7584249060759,-31.268277572103518,43.175303734265796,31.261094683535887,5.281497358837042,17.002353620630384
8.353286459851457,-2.6752527982064125,16.11755210424778,17.308733972847026,-6.0412529262082675,-23.042463270934704,-26.691052857657816,16.269289744747713,-22.634132141148534,12.479754758212309,-5.880029076195443,55.13872619801738,-87.05321580061386,-31.17051837207775,48.788843404406,29.929411458109996,10.033733733624807,16.6620816341459
11.394779392186651,-2.007830437249604,10.340417832863576,19.46483861460218,-2.75442362109785,-20.502956643300337,-24.324023009644577,8.03382421564889,-10.228099921729356,11.100789791693868,-10.466645302720847,48.78616083530564,-81.23011141673297,-25.601622084296732,47.571052657743294,19.713101784773286,14.788033746801347,13.001889020298103
10.625626703958979,-12.472410236939842,7.884008764412075,16.73997824000896,-4.938032192173507,-20.893377751608067,-20.979711212089647,0.19218524537914283,-4.362190826378903,3.9594221774405627,-19.057809593388974,42.23778171391453,-78.148565187126,-24.91329659566964,43.818831238311375,12.624094633876195,7.922987861517561,6.705358368619372
11.6122753396275,-13.560820243154172,7.088154179143743,14.993624861474348,-4.6818023426447635,-22.260549680076394,-17.439395737843668,-0.5172388048889307,4.338794439012981,-2.303671469791664,-21.692443998773093,39.79055516679068,-71.16783314303638,-23.929669831760805,37.629792220674446,12.568724188556226,7.016848309014283,-5.157263951515285
14.354681702630348,-11.230136841969964,7.269260667539266,17.350832140554047,-8.138170994979067,-23.432556346999633,-14.484354796099382,10.007178588926514,4.937243553201167,-0.5595264561848268,-17.88227024262457,41.249190814509745,-65.65906664448033,-25.482805205066384,33.30082766396907,21.793140636316526,7.772531041357838,-8.327969109011514
16.020728440697535,1.8440153955694445,9.5992317995828,15.510696494826377,-8.27577876487207,-22.944507388833195,-3.716038981870878,17.409748137224753,7.101325604242426,6.555047288351599,-7.041351175733111,36.359650413963315,-56.837005340881696,-20.685838187357007,37.179638340267445,22.81662818951349,12.045387198732662,-0.8536232996039379
13.387668013457159,9.157522377286288,6.363116719257782,13.672503414738813,-10.2704823713313,-24.019082937732154,0.21687445197748811,17.491182524434812,5.069284884935268,10.739090308261225,-12.802868061768436,39.57530339346023,-56.225224736407725,-23.894447365135225,35.789399963441525,27.74876380534705,12.803911177410017,-5.097869749696137
6.846090105214911,11.979977704216733,-0.6812346979009956,16.523825412850545,-13.536330426695455,-24.41012868255899,-2.099684299633057,18.259408880960606,2.7474800160967607,7.890925389159681,-10.9477083494911,34.97796146876418,-57.378269403211476,-28.663213727971353,34.01293961144408,30.24180899171177,6.629931418880399,-0.6502612085285993
0.009290734416239843,10.506738738987547,-1.6703801937972083,16.252042575095018,-20.51476002666982,-25.289510262082526,1.9321169511752894,21.7652290494203,0.5265889365377125,4.455910680767586,-9.776785804540069,29.891978042084688,-60.78437673206101,-28.351403933966758,34.77992581323297,32.248930564541055,4.265646398407792,1.7468307983075952
0.3968765070580993,9.230102229933834,-1.3895385661464,15.200938266093207,-26.225218535519485,-25.58296438271808,-1.4574795201856547,34.06340901466602,3.8754899449940954,5.512195415442314,-7.239292588445654,21.289985665096214,-62.04889040350117,-22.177750299950276,31.64488034175089,33.3795069378494,10.886761172678284,-0.6410302044268934
-4.8820126039233305,14.400202986033609,0.5519315940811369,17.76510669413922,-29.105172724870453,-25.68109299495315,0.5246737734513891,38.84508900662814,4.883948724328243,9.887832918304584,-4.116494179619374,17.179941207465234,-61.074088001657245,-18.73612955372987,29.58827691460077,34.80543770095129,16.43437116363151,-1.075479508795004
-7.6241636251010565,11.270760345432105,-0.7288462778763103,16.0342651107877,-30.326504580504267,-23.435396004275333,0.9448606741075789,37.282141422819464,2.0871395007727456,6.840417461046749,-2.1662323149382736,12.190690906509005,-57.176294061109196,-17.92888102120783,23.336522941609118,36.233753652767234,8.798757136644387,-1.802664079267819
-16.032862721586095,9.900558223890155,-0.934921165862721,12.059218566049827,-37.70182090107696,-25.29125370912809,-6.54468870356229,41.58175993179098,0.2703294753681331,-0.21208486434590323,-5.0995023968927935,10.033250688509156,-58.851654147825236,-21.709158159493633,16.01458795654635,36.59022096871078,1.163552501017799,-7.9984626335605
-22.490840878003063,5.699718024528085,-3.3866457626674897,14.043208050014538,-39.02389023963619,-31.443950367427107,-10.518035739061531,50.181393438327866,0.41013150204246696,-9.902520987277422,-3.6388192592190585,6.996648178473048,-51.15844973293376,-24.21749692526524,4.692658147792301,39.87880560252697,-7.057352681718065,-13.217482331761456
-22.994164115040682,6.773865804925956,-6.619143458566073,10.755582586817814,-42.202974107162085,-29.881552121285537,-10.779882159042225,56.63560040521477,3.5808136060560933,-11.293279759799814,-2.8623844135422063,-1.5090086144306518,-50.112459542971536,-20.571012514065742,3.1403898867100324,41.31427418797186,-11.860156486292714,-9.256490501076412
-21.0585430272073,4.040863724877122,-6.62843635111571,9.130029201492333,-42.0631953396565,-28.709619062031738,-5.2794328916196775,54.88956679944779,7.829251212808691,-5.4586525052803285,-8.336686958267125,-8.549998201069041,-45.75249716405553,-14.18773000209109,3.4474179324173306,35.33012873979121,-2.893305735504674,-13.9868705476934
-17.953558705348886,8.536066711315572,-6.930192466850839,6.529774736640531,-46.221839257739,-20.310814684511755,1.7840114674936522,58.51768088899046,8.956188982676526,-1.1878924314867065,-8.831083583518604,-8.755122691769834,-46.47702518160682,-11.415408774509348,11.473115183525557,40.18835718674822,-1.3486991092599663,-5.045016376930483
-16.023025842354425,10.78670249384867,-10.844764278872924,5.298589151615972,-46.377978097646036,-17.185296609508597,7.383042869317125,63.0276455502187,9.110121857852599,-0.8248422912059037,-10.595665370545442,-8.47211267171981,-44.86394625933208,-4.34378040110732,11.006202129825674,45.04893824292121,-4.589748422313971,-0.8882566852170785
-16.53652239552354,15.089738328277551,-12.51267660412013,11.29591944091544,-44.875376370261264,-12.204016444345932,6.244124869630708,67.24752337172785,11.904407971438783,-1.2445117656299276,-1.8138403933194942,-11.509597042796848,-42.96395797316163,4.390385225101035,9.175596100895426,45.81023207384469,0.5671687792610953,-0.6376870132939128
-13.04866320660523,18.51546680339868,-13.301126938558,16.22083869126284,-37.710044127953886,-12.105324752385716,7.6447238958740495,72.056186058917,15.581226755613477,1.849981986852186,1.7915016227967175,-10.83619501562195,-39.60504674121009,8.048690591583675,11.059398915866371,50.38249830814132,-2.4799373975902856,4.788847897878821
-10.1493860616165,22.821750077111517,-9.889741154304042,22.026481140445362,-33.8664695728041,-4.87728595231588,13.635633160171299,72.86366848348612,19.4569897109317,1.915512310605227,9.986142181248788,-6.549540201008366,-36.93555657078784,13.66247686543954,19.8802124517577,51.148413372059295,-3.477179851206637,15.293676381808869
-11.15907638980599,30.54771021332517,-4.231662990330637,16.603264909412196,-28.657056068688405,1.47219873811326,21.87304708891739,61.75963902128902,23.8246825890953,11.061580591714343,8.023771047443251,-11.149798485512317,-32.02562357341006,23.77082634173921,23.33305511458445,41.3695708966501,7.829327037358065,13.200734214297448
-14.612888578047022,34.466693193625176,-6.190313035164486,8.740363001974337,-25.890429231185546,4.404061367641326,23.567748747649087,46.36134346895169,25.461609272936975,11.026130725714998,1.5685466973306035,-15.652432113455976,-28.488447216900184,28.998574049212223,23.175657195046337,24.75694032563156,7.708573896543644,8.471098318839534
-17.776424577914167,33.21150729139383,-5.511617307998681,3.1253218628708304,-22.050883110871567,6.945724879874348,32.001169932568295,33.797735745415125,24.1724602963216,10.30532711728572,-5.27789522799834,-16.151104917119852,-24.175415251373337,34.03326648677353,27.318184014810704,13.517712196709471,1.4338988145662759,9.698637968650244
-17.134022571234212,35.473705855940906,-8.933948513994373,2.3948739574570848,-15.771181079029324,10.952718931907576,35.16138717852914,30.123531548250426,22.593997299333243,11.04758079333899,-7.339682951688774,-14.501286412678066,-20.35593147283116,33.21072645320155,33.70970890586568,13.901952693356552,2.9701774520014688,6.238648366959209
-15.029483267521773,31.68284263738416,-7.082152141122268,8.111515212055535,-12.129496491554729,15.936786901733079,39.98207802280713,24.693970039096744,21.995770142956843,9.737153606310306,-9.304375469525098,-4.745825838811802,-19.373630156574734,31.804440267842274,34.34218066391096,21.710347696839086,0.402983095077456,0.6302204010239514
-17.32228411211241,30.53046657104252,-4.057841727581456,5.72421307291995,-7.610120809988988,14.964260693134637,38.064654203868514,20.731686623099684,21.987143634510012,10.768584138081504,-12.539167644723783,-5.342006323465995,-15.173575465867778,28.935453123540967,33.12179010761155,19.266812944765007,-7.830391689584866,0.49064824027629506
-20.692073043192536,31.91892773872901,-2.9860533280844628,7.244838988381577,-5.924017610063888,17.41031408115092,31.948193753769853,19.017870468405835,22.372794541170116,13.653523768725979,-5.520431689331401,-15.020246264599468,-12.05254776539796,30.170217448801708,31.708597879112144,12.62609313068321,0.24285992731998896,4.257399306917483
-21.330207342943062,24.03164515142387,4.141159452417063,7.399843129206287,-4.2390813308769495,15.560015480680622,30.910158175216072,21.407943279452578,25.105866348554834,13.216052186079244,-4.459337078880372,-19.62014106551946,-5.8110999852827305,33.750851439344295,23.95004338391353,11.749240766434099,5.872266089819805,-0.8626982354290962
-19.334351926502997,15.267187768250677,3.1634360623158635,4.333695342140441,-5.387354902951632,15.468173729807056,23.622225213541263,18.233710952239786,31.553552497582103,4.670879904735459,-6.13316208410988,-26.66130307187519,-1.5272665404181325,33.915502120719175,14.924204252715452,4.6243151595573195,-0.024529768595642487,-2.9554070786326907
-17.63424418737514,11.582678783932073,4.23719330008242,3.319879320737982,-4.583577201496642,18.79499832691599,19.75248617393177,16.135819651580817,38.00484030407754,1.8853457062913006,-7.221526338862848,-31.163152454001768,-2.228265690852851,38.672053958340214,12.150599869943555,1.50533881343884,1.4978862841593488,-3.77857261240735
-14.86267895855011,13.075774728676759,5.897576934094871,4.163044174324778,-2.1206893777691107,24.85691188013648,14.906317235979493,15.700133461251358,38.307269914433476,9.449302996077694,-4.404048601981967,-35.078807429857676,-3.8122972725781636,43.62585441226604,11.039188239193173,2.4899278206554776,8.095539971984284,-1.7696761079958327
-13.461100939444172,9.297093950188257,6.679732770806367,9.49991238780971,2.2943139546639486,28.38042199450416,11.134504912583791,17.414856678416474,32.75378863697609,17.69457509418684,-8.032430399798283,-30.400295161880962,-2.8611621275500383,46.82369035810188,8.855422973108983,6.4061463364463656,11.95562277698885,-2.9835015819638633
-20.851497576790813,12.258532792350533,5.7047530882066315,15.912425518144786,6.317679180291687,29.853841641450174,11.17143941583438,17.959539838075127,31.012483132408114,13.53496443057301,-2.7743867745384323,-28.748846966409783,-1.1325183696390084,53.539017282153345,4.427280225948337,8.468720937128047,13.468575623762746,-5.662212823087062
-23.94772889121254,6.725475878935255,7.5625636365774564,15.783241307495233,9.265834132491523,31.425663992945097,5.251319775779382,16.45517523533165,31.22782301808923,12.302675872117113,-3.473873669409616,-33.933073288881346,-0.1887058971517277,53.322390286597624,2.051568454431866,7.212740292609801,17.517094820527177,-9.512838675048217
-24.6052871541897,5.100446088400478,10.007048376147756,17.99917464535482,12.701334419577428,31.142755679214133,5.483678409525937,8.702390414262897,36.52481895294116,10.384312799807681,-1.2440153987707765,-37.16373439814661,1.0446968899816085,56.52545884959244,-1.885181824250182,2.345185007197081,22.733780712678104,-16.097903967420894
-26.144528759767198,6.7974846749883735,7.374070378587741,13.67333083538022,16.42889596560351,28.4191901688351,-0.5340454024070045,2.7090290105838193,32.93837337467881,12.17441343450865,-2.920831691980508,-40.491597987901656,0.22409298064203398,53.77300462698656,-4.453372333781985,-2.5206555312898615,19.059694251265313,-16.921185190621415
-21.045798982823527,14.843967112958449,5.913737027098569,8.567475380399507,21.32746936294484,32.727786580053106,-0.9852931430121377,-4.454733497732477,34.53115645976535,19.919045912740714,-1.2776269794828163,-44.89319485527609,1.060667324953954,57.76045420277945,-4.188271571619087,-6.01762065391873,23.487089959560436,-14.814755560440895
-19.46549212060353,25.72419814449762,2.208039445727396,1.9979621746077658,22.416540213828455,33.033236962962455,6.1807194175554825,-7.417814817683073,36.322575399650866,24.2430075462277,0.2676013231027472,-50.36847662463992,2.6756929381838717,59.796184710355675,-1.3829878711372174,-6.876208000795685,28.300813739532394,-15.345103862885317
-18.278547894838905,34.94590299229657,-1.7898555177105306,-2.5195727564032353,19.696138180741137,32.55826174133359,7.682511079227875,-16.336714269105826,39.972760087976525,25.43921222845008,-3.4609828617581764,-49.593062631214416,0.577108081335389,57.0480333264798,-1.1158591882595879,-12.909085487414295,24.613818330121866,-14.898890137614782
-17.28963634572755,39.28635541106459,-2.1736261938721535,-11.62589898944032,15.11944694131515,33.54900221025885,5.180234700761562,-24.277827413019715,38.45029795717871,28.585803488086324,-10.412542210482309,-48.42636535265017,0.42925740018959857,54.0081633810949,-4.851887292494304,-20.01467704952851,22.387000125655884,-20.898097870471894
-15.229190521545917,36.30408902055196,-6.169933267391766,-18.777991743424277,17.280375618566946,30.341320952684477,5.412245492302926,-33.48737798579501,36.63801719420151,27.334969691292475,-14.239298232827618,-53.60671516437055,3.697203904651097,49.89521589966863,-7.610663146476185,-26.435192580136977,20.25295756828556,-24.553524482011206
-11.315930360178243,36.54611486354,-2.7434399920939017,-25.343103683194784,16.706150433514136,32.89631718640529,2.8120233184672996,-35.76221197169214,36.293694813787575,29.20629880855153,-13.86698983692631,-54.48936295723612,5.986547166462685,54.86549449881048,-14.07989387314771,-30.1198688254822,26.02411667782065,-30.94336528138366
-4.866231771487238,36.887358396355154,2.6370323220293965,-26.926681236314522,21.8930207280392,33.010748656642434,2.2624261997019737,-31.981345476304135,40.542312767838155,29.21918865398954,-10.760456638760397,-51.269567072383126,10.32487575862995,63.15708689258807,-16.154122369256868,-32.14299017393146,32.473611603101666,-28.54399853867671
-3.3997191148245296,29.808144858511803,-0.5755400931369228,-28.411656514561507,23.368210509236494,30.782279201336543,-0.8264886260296382,-32.78956875969281,34.53982546912136,19.853936462444466,-13.904183745162356,-43.068349050315476,13.977972118077538,59.04698709735838,-18.228081848667173,-34.262445041966274,28.272951628588892,-32.492364367479865
0.9939078663006171,19.019437759230144,-3.689606167892265,-34.29033098532025,24.061475552130638,28.35938337694524,2.139131059685992,-33.20643365958809,30.298062594373835,9.802025085046303,-19.97778054435347,-38.08889866265152,13.820988036160422,57.76968861856244,-18.739382806180892,-31.49773751941452,21.234563444122905,-30.58123443523435
10.072513423861022,9.89238041534998,-8.853623956359206,-36.26184242492444,25.340046483889395,23.105304650323504,5.98339622855655,-29.032753801265955,30.356049840031442,5.704125677550758,-20.777968998189714,-40.43277906137053,16.397191677985532,58.73912700557237,-21.203837506685772,-28.536487615413066,28.741332734055987,-32.96700170756436
16.60945129115619,1.5480190775924427,-14.798030575485798,-35.40047188768426,22.418714926316223,18.92635326299625,1.8194238914287366,-20.073309895773164,38.4247026923521,-2.2055900016081065,-29.09788482403522,-39.16225996103793,16.72623776002046,53.65427237749056,-23.863739387756667,-23.425588564828857,24.91376689083136,-38.47776012080037
18.74925243377404,1.6036217732866653,-17.323530906064352,-31.12031903483014,23.5007504972711,15.334239349700509,3.221611507559248,-19.1213617130367,37.51149273857359,-8.848972645818893,-24.03874306616801,-32.71475276033058,17.835715368742477,49.05806750223317,-24.47309218803339,-19.48545104148876,12.583749631702563,-30.902310484161184
19.9099672619609,2.9301362375888864,-14.965246523073402,-22.054221767834004,27.31662051818091,9.887516461045085,1.400734313610208,-19.04798954135636,34.45237727982118,-4.46030027257946,-20.93278008918788,-23.238661709323928,18.553930237595743,47.68479954933495,-27.23130936330928,-19.450538672180336,12.356874242883146,-26.940110922672048
20.384599934280608,7.480678592907342,-11.824790164769814,-12.889798017369207,28.20219244597174,5.515912097284339,-0.3228723539389833,-17.31418685362699,27.684745202515675,2.7571261663177005,-10.99077023139818,-16.300410792301122,16.34197900899722,43.28423999361826,-22.76337722934916,-20.781796437613025,17.49456777976167,-22.977808543498295
15.290295774140933,9.591059871489579,-10.929539411494742,-10.170162902809675,27.91532038001222,-1.2962588219203273,-3.218786568643237,-18.90059240731295,17.69679529811782,11.729022101801775,-10.716842379225284,-14.927321689285478,16.37591886903035,38.297695722320064,-25.229796091280956,-24.944135917968563,24.9692525793006,-30.050710454484864
8.240424852749019,10.042500682719105,-12.76777059495666,-11.063288606591833,27.92088354701545,-5.275486467109129,-12.462895579033422,-18.24080821869814,10.25024181957956,7.6113630587621515,-8.29438069928525,-15.115357845056513,18.1676569540178,33.01800003186186,-36.779162715163814,-22.464800988573845,18.960188328383335,-29.60382753630365
3.141331784787317,6.39351502807957,-11.284691466745139,-3.0690311476524412,28.121235641090035,-5.249887767553222,-16.238639365168574,-11.623932464459251,10.911481171146761,-1.002016249568701,-4.992906528710433,-9.735434194320455,18.397024623909253,29.398164654778594,-35.53626817872337,-17.25014505608611,12.06503855810689,-24.957503556628374
-2.448390630651452,4.698839208301358,-12.437411841567519,4.242104077054686,28.223413153637097,-4.051548641258682,-15.620279068615382,-8.425199505413264,11.57482391103078,-7.7634074754920235,-2.863203191448873,-6.893072430877414,22.044759651253294,24.508311340287545,-33.903768628325444,-12.522916424893996,14.342367179626503,-24.998572633945816
-7.1614964633266185,1.1497767695066585,-11.343032424208415,7.452049194640674,25.68832280450472,1.4445655284268017,-10.99847106284478,-14.015875273445587,10.677647105108843,-13.06348457968031,-1.2216374287923468,-6.295228019951001,23.739877671772838,27.332803335415484,-33.63962471617515,-15.314514294398052,13.38945965962519,-21.62142133847161
-10.216684985088676,2.9729549866236518,-10.44298449740458,9.197516117467048,23.348045252963082,4.890686979306361,-11.162436738722842,-16.384146786663724,2.360385319016892,-8.894354006229175,1.7873166816858745,-3.742546372805812,25.04509201032156,27.32445324407419,-33.279089759392036,-18.39830678814443,16.33515144725151,-21.07612335542842
-10.24670781560018,6.847964387428613,-13.83888101840863,13.58008275843165,22.081504573342563,8.142296563442454,-8.88552742536268,-20.315331114909487,-1.0721890001948537,-3.556962835612544,5.284768043194621,-4.31315789546802,25.765274634600082,28.780047745773615,-30.869126379909886,-22.65325340397204,22.49566090563929,-20.92121289628924
-6.470261832667221,4.083219075426232,-10.30006986198687,16.59573450060524,21.009783726958297,10.613430100216144,-8.269391587280381,-16.33671393551874,0.282161963876014,-0.9576577748864441,10.540295469160561,-5.956177776707612,27.267819151047483,25.83996631582792,-25.726245750304326,-20.364431412214255,21.226119202585263,-14.125309873551434
-4.160822650457201,6.885888923561392,-12.229072165532642,15.900638216539052,23.746219927873934,15.038485073707792,-4.82179579668776,-22.71037771644811,2.7123381618243627,-3.0496285624540542,10.327253931091686,-3.593331206288866,29.943539397825894,29.44171770540926,-22.538132609953905,-25.59459300485123,20.14365738820559,-8.501010281848025
-0.38861459146464306,1.6814998852210223,-14.547673762901198,15.303398322869413,24.724321025315,17.70644664973498,-3.1326756612363402,-21.27206637238143,4.167419798669368,-0.5554225572746061,2.7901735824731038,-4.353560970083361,30.667568043527204,31.47954951836297,-20.816609266844388,-23.304482653626692,25.7911740292558,-10.591359172487824
4.748749163875203,-5.2799012624802515,-17.158205451289763,12.460181534254135,27.948051617135643,20.668105226585215,-11.40530234048939,-25.10799911252394,8.26063483258315,-8.31904657220061,-2.5004604268441932,-2.670303849121712,30.709633386783757,28.632937019010384,-23.393858932248907,-23.845856082848034,21.66434386432052,-16.587680921245987
7.149689141393736,-14.486652137271271,-17.130923817910677,14.988244001054431,27.655600514297475,21.28667827669286,-17.334820697299467,-20.839145954639577,3.1752872585128245,-19.211513432134407,1.2914196564589098,5.265163704483594,27.140178078763526,21.2923482108355,-20.79718724633295,-16.867026904222275,12.93886297863371,-10.278766788875897
8.572091292821256,-19.395733293003936,-15.051764389959907,14.977261151105253,30.87831873043528,22.19889988113451,-19.65169933000236,-22.625957962753926,-4.3503491689827705,-23.760047646760427,7.622770442146923,9.589481134611034,26.209469383404805,17.66086914878324,-13.905617943074175,-19.16515927030497,10.161606396830212,4.233782026379206
12.629339616484028,-20.886113662400028,-14.729368458583973,14.575655627257863,30.29186774663372,21.256273539941592,-18.35595652829554,-26.757518028451305,-5.527188863795992,-19.523228370903038,7.02081551987089,9.619114837635571,26.550467741140206,12.855447781769172,-11.313133823823234,-21.658114969259323,13.039443420039767,5.465286484637232
11.997152166953118,-21.88757475430043,-12.45273171149502,8.216888606386131,33.220568362273696,16.700932448633235,-27.412666464380486,-32.15966625094249,-9.92580194152282,-23.200549092225927,4.270807652787836,14.729277688551704,26.210183932638024,6.485287414757721,-18.879298523888743,-23.467004727921697,7.021216924575196,1.0330739006922443
12.925673799722052,-23.47440095677363,-9.979683722680134,6.447948420589328,29.99629292616916,13.904023621541972,-28.950479045007025,-35.02382418568705,-13.835306259189501,-21.315258775922317,5.720522489704557,15.349580086309288,24.309860540803644,0.11274570602068934,-17.95158042660976,-26.545012503193092,4.021021206099471,6.171775003393876
5.942154101739551,-20.177807923518618,-1.9390395287672808,6.436713065265002,28.13867442802177,12.279570771231546,-29.12184725282116,-30.955465089680395,-21.943385572169582,-15.918184169166674,11.858270245984222,16.265319210112516,25.048939181859357,-1.672429947819829,-18.588821007461206,-24.44675536981894,3.0621329121339596,14.826632745026728
-0.9454209867411763,-12.974421930075856,3.954248105442833,2.518986166251308,25.108597049284327,12.315831660283916,-30.661202154729395,-32.7478225956031,-21.554645985889408,-10.817988365596392,10.281538346391626,14.644487360010547,26.57207802053314,-1.6048226214920405,-23.23255547443405,-27.719295965360395,2.6795442498388233,10.981800048959357
-3.4400588055972254,-6.747178552500522,7.309556317540217,2.3120241364852214,20.710729216906326,10.20412245868563,-29.955220691166012,-36.78762807998214,-18.333348698222345,-10.89756655260426,8.60764978636076,20.05760856043029,26.633300594688432,-6.715955671229196,-24.65620020114092,-31.089141817860252,-2.8886886681158686,10.946141182932113
-12.088742372768998,-7.062617168999845,10.080047341408221,2.9837053571824095,14.066133721144018,2.3310738580537063,-26.222653248951808,-31.746649518678872,-21.55709109408361,-14.301426732038877,11.133563175232752,18.63734780774582,25.52572792164678,-17.68959881430598,-21.78560660971892,-27.622617686037174,-12.763778716078011,14.231388364584628
-22.69213514425021,-10.795737835817423,13.632936244589118,3.166774510552539,7.616235128630093,-2.8071245612113174,-28.740996437821277,-27.97667125909824,-29.956434285252406,-24.349933951964708,17.273348832633886,20.344857179689143,28.523021909486914,-27.68987500301411,-27.316364886844607,-25.425339149107852,-22.746570708250733,16.14999013728444
-23.726569287983395,-10.231626304524621,17.479940249496615,3.4471313169390037,6.732188893476119,-9.116817032907438,-31.45548066692633,-23.915231410063825,-34.44931969890954,-28.054607413957008,24.68323641390324,24.789566672920508,30.254146848434267,-32.71298063718845,-32.94764848459197,-22.348857943050763,-30.688716895656853,19.143409126914396
-23.395239728398547,-5.467986953057047,23.18358828426133,4.801306729688018,4.284958490167391,-11.812809662561605,-31.143409829549256,-22.199148969202543,-36.30540861340898,-25.220126976046032,31.605400617362267,29.041803304613914,32.47707803566731,-39.10683131651679,-31.745836607997482,-22.49482008227107,-32.6840248929116,21.551481829686537
-20.526197615118242,0.8583752464662702,18.829640248990177,8.59646297296917,4.278488604199573,-13.04360877774534,-21.94532788056442,-24.293348125949162,-37.28265028043567,-16.530088802009768,28.957684180979165,32.613335754799024,30.30906034148921,-38.473022392024795,-25.17587150681775,-21.663962622674607,-32.443600528353116,26.108641911611997
-14.728755332196508,-2.4832250978777637,18.28549850368802,11.12156013274719,3.294734584257263,-11.832673623468398,-23.88107898861186,-21.89697714552347,-31.717004857067543,-15.070618649170491,22.599562587057786,36.383139125564625,27.94950430395823,-38.03838592339438,-21.441076901327257,-22.786036652548276,-31.53007363293902,24.0257084774433
-5.709882356641339,-5.824716214056529,18.523775383870955,14.720338572658045,7.193136085673235,-13.551217087625073,-23.473901569413083,-14.42414387514983,-27.518857426528015,-9.611061532494054,19.367087181245527,39.47234716362924,28.035292392690433,-31.943614860110657,-23.76422918011703,-16.583574798939416,-22.326240559732355,19.20900554141641
3.6984047537660505,-9.068484028334892,20.325734070568153,15.291128238120633,12.653304264934734,-15.074229134494075,-21.114432296473154,-6.464814526634582,-19.805428059066802,-10.01483084955164,23.94783745275019,36.11920449000793,30.664201552974255,-26.829590747907694,-22.477280469087436,-11.357502028604841,-16.453466380520602,19.568823076225645
4.706967850105441,-9.480154587630727,17.929568100341623,18.10740260315734,14.108721411524009,-13.374357874363465,-18.755830892143564,-3.292557660327301,-20.588724719371157,-12.961541555406315,28.919831510181954,35.894218730587234,32.320668016154144,-25.821514143820842,-19.631109171944694,-8.182069715654311,-16.743913288308413,20.90588981639163
8.644163761725533,-11.063737053783731,13.874377835256185,17.30965328854233,15.856300808872831,-13.529844195255567,-21.378646283187713,-2.856609527173479,-21.56794418476472,-16.59567114975702,27.837663235263456,39.090409931015074,29.977412343790476,-26.966380578840756,-23.233713332493835,-1.6861176291519477,-20.365588109275784,22.9272425719716
12.775635200026898,-13.135668049970988,9.039080941591358,16.608831021943555,17.70069902011081,-13.001625543928466,-22.146840157842693,0.4094740304924471,-20.399404058773573,-19.54998224447678,26.658457859514357,38.57880755734183,28.810400863535097,-25.18613517190994,-20.98027857260514,0.3177202298631734,-19.701261795912963,22.507842094439436
15.73423365388663,-11.106073526594255,8.794849995099993,11.51263698698283,10.852690891377463,-10.324874744591568,-12.759507483225862,10.41195731518081,-14.446447323115692,-14.304796206048866,20.304014317083663,33.38287632146978,28.624419761411055,-24.77786318482306,-14.726360401274341,9.06006980348145,-14.555686780317291,22.382111889129753
15.664522282424322,-7.7094088243997625,11.286183643885114,8.564097688513554,4.101444001413984,-12.140357238145285,-5.716841324033096,13.674028575219289,-10.838189497291628,-10.723508504275635,18.44244863335498,30.924644158648025,29.4195662479011,-25.741706225625293,-15.019050811454372,11.259464803690797,-16.745510600679125,20.59690222510605
9.05088299132359,-6.949678735461221,12.11847811709387,7.177225347951823,1.0602653045862453,-13.662883006383812,-5.413441832331248,17.324660882761847,-13.578696869539394,-6.462293428908294,16.776818321463967,24.661079697903276,29.2427782595088,-29.249695524847965,-13.557495609717982,12.873014223750523,-23.438712687299173,18.714740256537844
0.19031718720103896,1.817774187639103,18.225426308962938,2.469092431110778,-1.2006071334327721,-19.09177421565269,-2.571825133459315,19.70363231777231,-16.51562913955653,-6.013363398497896,22.24081934025739,22.990783312721504,24.676123150417652,-31.005025440175764,-9.951115266831152,13.119443391880058,-27.79929788555878,23.47401155951538
-8.67098601291207,7.850563567062372,22.67332080984804,3.1311981594228246,-4.341384825659649,-23.54418324864032,0.6595373825698942,20.81090413149107,-22.57881416165902,-8.595409167355875,26.7288540034218,29.429465849024144,22.751041986648893,-36.37900301797502,-7.227348927106217,14.440183398259425,-33.83127280911209,27.6480430239172
-12.064131848987163,9.195500948253066,25.364494805619234,-0.5046124482440106,-1.4283982540813298,-22.527893458676857,4.9642490445259035,12.150215744180233,-26.787801099674297,-12.157567157303498,32.975332127161344,27.961287586466852,20.049593159554057,-37.85210986759914,-1.675249492434908,12.63593927649677,-41.925300156507916,34.65485333224388
-11.942213627930112,4.290030193807965,26.201280261797834,-0.8210733567820929,-2.7157401671759267,-17.703125802774448,7.705550193943612,10.128031848699347,-30.80286365059241,-9.961398540602726,34.339518837325286,24.152766824772236,15.79058957314631,-36.49870484531347,6.119191681429914,12.003639663501307,-47.19851699225015,40.39281326295964
-17.680312759644764,8.368727873663367,26.062585323498297,3.15835621974217,-5.371366038199401,-10.730101182189822,6.344339012931094,12.791163508786163,-38.04211298542356,-5.229550250485367,37.65744578366707,25.523574109509383,10.56004803592634,-33.39314278301687,9.417547660383775,16.44958238810875,-45.84228772679128,45.54552092346314
-16.582861273426772,3.9508290630030882,24.46010855591977,7.2343579890259235,-1.9733173591955193,-4.050302337170767,6.935394840048399,10.178488596745687,-41.86491114607091,-6.262867965966539,38.729818393558325,28.4603950530094,8.459659561764507,-28.437881475354782,12.223744913953851,18.844740740140484,-43.911400608754576,46.89026286069802
-10.017005710560785,0.9973953175474146,21.68680923675349,9.25842741999249,-1.7991088938697644,-4.304494729011454,5.9630384295518155,12.251065458848142,-42.759633270394545,-7.592452258724441,39.41212043237457,32.86559136048526,8.51290825890976,-32.66835681368619,14.537744493225624,21.72820432714795,-45.99576975812073,50.188835751100896
-2.9632289738454105,-2.3470968112921855,18.523934150601306,3.9570135853673163,-2.7979571610384966,-4.461360074330752,10.556284086655008,12.465795831748991,-44.24204247498233,-9.706522096484763,40.29028353719752,30.828902985108975,8.376065479150622,-37.39313678598322,17.04311349828283,27.736720491664954,-49.55628613735695,54.07401927891248
3.113664655272034,-12.72339843466251,20.440300434973437,-1.8338733055380327,-5.848810398843284,-0.12633892952942571,9.679806254613109,11.79922890738517,-44.749697401012,-13.58158139215622,40.290056308752526,27.037915834469274,5.119451764947453,-32.84654973421608,19.15387021880253,24.077113584173972,-49.61238898726832,56.78796021734049
3.916796358386298,-14.60395199616545,18.549036278029224,-6.161108618655149,-6.654756037796524,4.696562658751857,7.2399133515254,8.884129572254622,-41.84123502688932,-15.506558775192497,37.751239514015914,21.297326309669906,6.458076993264331,-31.919515106156343,20.47935018268022,19.147937475031192,-45.4804498159715,55.40091053005945
2.961906405119872,-15.508424905374051,20.272111351460683,-9.513009718704375,-8.536184564349913,5.710365602356359,5.0921009177571435,7.724439874235301,-38.153492812869764,-16.750923866330172,33.35741836010865,19.759581451603047,1.5519761035319064,-26.3112180384447,19.066366783731354,15.683596981266021,-45.85197481593967,53.3308733961253
2.1045533095716973,-13.483682022886796,21.019592203819148,-13.940416235228955,-11.883753492419462,9.458100164690382,5.5801527929756105,5.585719243580032,-36.323306219384634,-17.314591912492787,33.16335251681894,16.174592870343936,2.706064167777111,-24.61562792334884,18.332910785776313,12.31687167870924,-47.504217454011936,52.72629952532067
3.590926323690418,-14.779836579570565,17.959383657986983,-11.826049875124033,-20.31082490022352,7.931793542591857,7.727489185789761,12.03840382026732,-31.95615143160459,-20.12720661981524,31.016582977926106,16.01119860048773,3.3773081627990322,-30.54382227709746,17.595349487590454,16.95802627522218,-57.85911639409395,52.80590563394047
-2.7353185698296523,-11.779600862400152,15.583720041306144,-11.177869049087075,-27.469670421800053,2.2056429991729445,13.291946498857698,13.117415825160084,-33.841297591196266,-23.52849417363661,29.944477245543943,17.316246079290377,2.6868197776989184,-35.50199841487507,16.5606827318708,17.39983080678627,-62.26795251174932,43.7062368859564
-7.694293160845668,-9.854164712956592,18.09186150118576,-11.11697602969492,-34.53220664525302,-1.3726359808743238,18.95315805583346,16.830670468775402,-28.30673167652902,-21.36592099331649,25.552413607626434,13.546666659920888,4.736251266238831,-36.560497568129506,13.275730328900924,18.427501871562928,-58.97281983615956,32.16565263082655
-10.602332999672841,-6.269123620642678,17.28053427833192,-10.666813499404485,-36.42025367099914,-2.3147920451498707,20.12120590691941,19.955444310518775,-24.532349965362428,-19.2058786143311,22.33262384903476,11.147868889285029,2.689583838213185,-33.62173035899098,12.91632863939664,19.357422382763325,-51.19634858318442,26.192061293566844
-9.603881172264085,-9.716026716221375,13.540344890867107,-11.194607992046622,-38.212035378759126,-7.261588572764854,11.131936252138779,19.366673124228978,-21.932272873579777,-21.05223105304668,16.085800140672834,9.924532796304137,-0.03514269570801787,-32.44756669027298,4.15415743468489,13.353537376234167,-52.90351182046508,16.312634369159454
-6.359059877148759,-12.77289402061544,14.58622957047587,-16.2160543530227,-31.02071754390341,-15.33414263103304,5.5597693366448535,18.97065146104705,-19.139357099294465,-20.850091442921425,11.40183064401537,7.825839217906211,1.8356044594804928,-34.40527298412914,-2.2684527717471283,13.013681919246748,-50.519791342353024,10.046988800049554
-4.871777595841723,-11.631079922938584,13.289147312362758,-16.7466546614823,-23.440200100372625,-13.739326647631746,9.264163122184723,18.376734810299432,-16.15366596273791,-16.548536647304648,7.987716015981363,4.7541217261793705,5.76273484531966,-31.486967395684566,0.5821781177826821,15.603425617158697,-44.92400595087425,9.934195558973354
-2.114586093388132,-11.368791120135146,7.500601188199111,-13.079394227091218,-11.368875383367884,-13.903132242138792,14.237175610888766,10.553553857276755,-12.682287885539159,-20.15935453096062,9.261450669116432,4.518021494987341,10.086073658680412,-27.501349391194946,3.2332312872517193,13.70076628801943,-44.31929645817034,10.505389822744377
2.498518732837611,-15.989997097374786,7.669942144680551,-12.147982555191565,-6.428030461753929,-15.141990877050683,13.54509904129376,8.294262085917278,-1.889241087603903,-28.16674873954444,9.070570243450089,3.0159008086708603,9.434448002402775,-23.22972322205224,2.071353739076182,11.993261269078463,-46.75239024500544,6.9753099656202835
4.865968773675881,-21.197757334987948,4.714972568119606,-6.3351236887613105,0.17151675650890796,-16.38170266007862,14.609912504277528,10.915246419951233,0.5025197824352077,-27.875091854579487,4.485315697639809,4.935316692572965,11.132187267033796,-20.91825395293593,0.8075243769418048,18.293515329719,-44.70351510095554,4.422125255678026
4.499531563408246,-19.57008151602495,1.6630541617461052,-12.828585439383978,3.351550775758011,-11.860495766817664,17.431605851796864,6.013966576682075,0.15708663838551118,-26.413274265479753,-1.4669498323044436,1.487056229167898,10.296399435597952,-13.730931514555497,3.250381216628579,15.120778299848602,-43.05542347362773,4.115352360647357
12.043956214196513,-25.169680024978426,-3.634311985065633,-18.34691842621551,2.916744657900098,-7.047238075347221,19.08043570601327,3.551506408973328,2.836210533768014,-30.617209757170137,-6.149494005733459,-1.1764609929020686,7.1223911304456,-8.50382414888534,4.907655715605419,14.975226000474729,-41.612657057349615,-0.19513865052898183
18.41712747689206,-26.277617708456603,-11.567785772247479,-21.71823073657418,3.164029100078431,-2.723225518553173,30.982345430015265,-7.019173980376696,8.149206220191353,-30.03738878805209,-16.10541175281125,-3.1529124196871408,4.930512854907779,-5.529926197490912,15.447452987053154,9.555935386795209,-39.00785648197393,-1.8686564907279646
22.544863886831852,-26.995511166927265,-20.57487253402487,-24.505044835622865,2.3355565381884302,1.1115083129410301,36.14487491714643,-10.951758077001053,19.22106834869195,-28.872959583699696,-27.623734850230328,-12.254938564476305,3.720748190544331,-2.3678099671512562,19.342182506942404,7.94506096104111,-34.94788942871703,-6.667043222048328
11.438738724479295,-22.245147276949496,-17.374148951410465,-24.851859904416308,0.23600491678410318,6.80071601404874,42.28297120170689,-13.422106602571962,17.59443218271867,-33.4715374737349,-19.903389976671605,-17.25192214057862,2.0282109078055655,-1.8495604235836325,30.459234836509488,5.2597002093383605,-37.04989254149186,0.7419307404613349
8.634319076668769,-23.061837890394038,-11.340787509836815,-23.05164299916425,-2.9393151529631707,7.410665289124211,46.9551752109266,-10.328593177608472,16.062410944032784,-39.14541005428863,-18.237756451141045,-7.499193761297104,0.34116592010001767,-7.295545928328654,35.5171500698267,12.535162107983268,-44.239455713450305,0.9243393976589616
7.588587017812678,-28.46899068319319,-7.357704672524882,-25.06150767261768,-5.04193651109027,4.69916313820816,45.27858322527268,-14.56203638511884,14.722612684072061,-47.65227276097379,-17.45099783689978,-2.918958096687316,-0.16852128800438848,-13.041617449925663,32.0744787404097,11.509433464894284,-46.06701802450958,-2.2135433232805966
10.938351104620372,-27.724237192663562,-13.139891326137136,-27.75639519474076,-4.60699439269789,4.13501111157403,47.604897841859355,-18.895758486627436,17.578956044954893,-50.007466700205086,-26.23467584180778,0.9810138881731021,1.3780379883107976,-19.771373771456652,35.56113910981258,11.069352747543476,-53.470056012249174,-3.984181413492429
13.214826332778575,-20.925216006391782,-20.191153391781324,-35.823863583773466,-9.056476560234753,5.327546778960135,45.82850763449427,-23.91569907353772,24.631393249251722,-42.98813683712331,-39.022321040088784,-6.346342021169335,5.371440244574853,-21.527682059629676,31.621439985380988,2.7186806094577385,-51.60439532140482,-13.079148975388406
14.027429019107085,-18.911915047272416,-22.65205561256582,-32.66208103764802,-15.655963937998404,1.050066332190024,41.02362763093682,-18.19589379395201,32.36419874546998,-34.21143459688141,-45.462233552484435,-12.889153274442872,11.909305298325311,-19.28710375446284,20.25537927577304,-4.6557445883573205,-44.864429054688564,-22.271808054492624
12.20431235899628,-17.485028207448547,-20.327311441795466,-30.77121984478392,-21.085089108810763,0.3847090030848541,43.15132612046102,-16.189677505504584,29.937317291802493,-30.80622013238824,-39.499652772048385,-16.010691522354858,17.671228656363485,-21.35052554396932,17.381167852939562,-7.440602456001686,-43.601665271472626,-22.577680834636304
7.84317893773654,-11.175696743368235,-15.951366266849657,-37.96387830208608,-18.898435035742946,3.7220755936914083,48.40292897943208,-15.84622503830941,21.745301882654573,-24.569085956133044,-32.07226348275844,-22.351714818285515,24.512662700164515,-21.95611429215516,18.311234766169274,-3.4874386750062554,-44.88615234871142,-19.56329211901869
7.487140928988794,-8.480116777108247,-12.453980637348867,-35.97803563777602,-23.158708144246344,9.206639331795051,51.895525936812696,-19.606965312153577,19.80000997819635,-22.33591426418815,-29.723150678154575,-17.165937159050426,23.058416398343756,-21.885100231215453,15.916566939057404,1.2466087061230455,-48.131717581718306,-18.892823671432133
10.257320968629571,-5.589607242136987,-11.983652819942892,-29.501237581732468,-24.197782011748775,10.197644634275633,50.50404509551484,-17.21781906326415,22.636531600619882,-12.582929956208503,-36.260981061042756,-10.609797258501239,24.44142091132459,-23.18825902154274,8.927617116740464,9.105309648355796,-43.572354036295266,-29.64847726721664
9.70834919307324,-5.336211516054425,-10.634100790574779,-24.97886678348884,-22.308617692541226,11.382634238018577,47.54882452676347,-22.448509131525682,23.90707043793691,-9.177368370667878,-37.81836872726979,-8.152163236991182,24.950627725222716,-19.517795510213922,4.668720628896066,4.072779096910474,-35.797736120591935,-37.6699115262829
14.922435086936336,-9.868366957984376,-14.850762540616415,-27.391437423042323,-20.030302228591847,13.054553047190536,44.00641573606288,-32.36928282158335,26.346000660345474,-12.21672164661414,-37.42271510729988,-13.894695741082565,26.636791890385247,-13.217448292281802,0.6007825456176923,-9.358742410543089,-27.346719449868864,-42.566525321944084
20.723756720518864,-13.228916707454246,-13.695997842990538,-30.098190278492986,-15.31200682651569,12.088325546398085,28.939125218740145,-35.45650433787158,26.04697073934799,-12.423337190731317,-34.585741217231565,-15.337240439745479,23.249757515954506,-9.658340824246181,-4.741055382818844,-18.591421708039004,-22.613650669128603,-39.84609123811715
19.10441632850732,-11.902145670505128,-19.377050378112315,-33.09909018031469,-15.966332389513905,10.33942146685352,17.776848693504228,-35.12817016695795,19.884891685004302,-8.039206884897244,-33.99502647909849,-23.124528221371914,18.402797515673047,-5.4223949127167295,-13.114623042630619,-22.844011956340545,-13.785653097928382,-43.864324412264246
15.33796741860203,-9.208378879098683,-14.901498990776124,-35.515180075180936,-14.961901257881719,8.686733654705746,8.468745887759308,-29.33344140382565,14.988737831451566,-1.5056040874438992,-33.0138179389605,-24.756406331436505,15.709181939137867,-6.857301389343267,-16.70729015728599,-19.284453511651805,-10.725895443917466,-40.55853622708667
17.13940560558694,-3.4873949898226257,-12.47658626780294,-31.19398278084518,-7.611119472849681,13.380331199383992,0.13586901825163622,-24.517700614115043,16.43667157653906,5.517460945812715,-28.614729780324264,-23.35796117484408,16.731365519034213,-4.197219024815805,-16.397963649488606,-14.748802713959869,-5.914463328810626,-35.98353108741945
16.79380215930305,-5.96979278708425,-9.367919973306272,-29.510599703854876,-0.26171565163067356,12.70125956212445,-8.198387712439299,-28.786510053853043,16.318376487883125,0.5299698155069876,-31.247142394799717,-13.655714213462703,16.48873171918267,-7.6961384327054105,-14.139783868722711,-19.198163273454135,-8.140279875599411,-39.02618635252235
19.08641768153646,-7.573359595552928,-11.337330663259959,-31.050933620257464,2.887053926028557,11.727696089518734,-16.143421893504545,-35.30379588190557,16.879941721285004,-5.920868363172492,-37.786008341646536,-4.048271213927022,9.805345941812476,-11.00622957125692,-14.717963875208932,-20.913620255110438,-14.37567679038252,-40.70201137228003
16.30232063137334,-10.055890445604163,-11.451142059420258,-25.46321847479574,-3.145326893246966,7.725199525167849,-22.820342446764457,-24.928607186088847,17.63304033154093,-13.053617817264573,-43.64141210998954,8.394059247342014,2.638253485376591,-22.233003162887762,-13.835545107762458,-9.738782215559695,-27.940734272135376,-40.522737278874644
6.293069255530148,-9.120399091887618,-9.904692284068624,-19.876421850202902,-9.374315383139503,4.307082359003439,-27.447915948818775,-25.395706556030632,18.187003749229472,-15.887559446669384,-46.274248756198375,11.366360483087796,-3.2547855526265934,-25.360503396688493,-19.598100182436056,-9.697466397135141,-32.03803368156743,-42.687665084106534
5.172217814597488,-3.2043146900541295,-4.647190795603514,-21.22419409713692,-15.506905657929416,-2.6283037212890914,-31.00274809805375,-16.782877683816892,19.81134563941579,-9.637289302184296,-42.07117622003659,7.993638114689398,-3.5769120994819588,-35.037300206705304,-24.19298822366417,-3.1136346311384706,-29.792331248288658,-40.165454008243344
0.43960132750631686,1.6376311303345048,-0.8545191731355088,-13.881245942993903,-15.29296766069157,-8.588725194090516,-40.41856642999409,-11.883245559203615,14.009806325734655,-11.099763849916407,-28.493085617297073,12.924510483274528,-4.871278398869627,-38.8607649146656,-28.499105354308295,-3.952356176036904,-32.043340808882945,-33.24909208678797
-2.1429491487224723,3.647648495346715,1.3756441481035777,-12.300870532178063,-18.4005809653387,-8.398343621469639,-35.38258856541505,-17.63046918069992,11.329386155571786,-10.313718779182079,-24.192595727089884,13.75640131333715,-6.16139275748267,-36.44016635615168,-29.391378456986462,-7.819044762202983,-33.51724547469935,-31.802024182867452
-6.872351145117733,0.9702909122768908,3.5081452377545643,-10.13526092327881,-17.310060883303155,-8.014302172759546,-32.008368683154664,-25.43062535189003,7.180136479362325,-11.673577780179983,-23.310230633846412,15.274496016389167,-5.88481898832832,-37.54117389564734,-26.869780188732285,-12.467584018299746,-34.116085250540465,-32.79687175286158
-8.768038218936482,-2.585738130393379,0.3671045042645873,-6.212469078918144,-16.513622782206145,-8.315540729511989,-28.440436172606006,-24.93195011486872,3.3198625121824668,-9.710333171192715,-25.064715023386228,14.256044758506233,-5.897143650893927,-33.08150869077936,-26.598430214914135,-12.624467242505435,-27.19882849339586,-33.20625455005474
-7.732332260024936,-1.2585793562745007,-7.461550301797509,-10.59118587000911,-9.761128654305162,-13.208388286706553,-28.585126404834412,-25.900172619349306,1.1157392976117246,-8.818409590626793,-28.08882529479482,8.747847799800041,-0.5343090512472202,-30.971334416754218,-31.2140563332463,-14.735116163847323,-25.46067333168098,-34.20207346325874
-8.452785738095894,-3.153771671459463,-11.67692927918067,-10.087558924638753,-6.525334718486175,-13.22006258101197,-35.95814302830588,-25.698487739267037,-0.01821209942634283,-17.591515255275112,-24.765240677806826,9.00392241923277,-0.14812851229670443,-33.55431939555242,-31.829771084198512,-15.869809074922683,-27.04581212631142,-30.217843641104082
-7.804333213822467,2.7640639343476003,-12.279049753374341,-17.690009258282508,-9.345295735521809,-11.084997980922088,-37.37571529695173,-20.61585401706226,4.5078904734820195,-11.810358636370378,-25.640978318492547,-2.0658818096484417,2.0973453757530542,-31.064568115340727,-30.78932521209163,-18.665315078677516,-19.453741371843982,-31.312317010878175
-6.7635356265270286,12.588673011060173,-5.263961015045281,-26.26946257020021,-10.40834413317684,-5.631318340045649,-28.052637223998538,-15.339794550749131,12.057257295180474,-1.6311738663227224,-27.10268134992044,-9.031688279544166,4.346519720507555,-23.697270617712647,-25.748896037703553,-14.332447312960163,-11.57100076338056,-29.086931004213287
-1.424068193875387,14.210551649598806,-1.5693459048118492,-17.85683468174179,-5.905777838641894,5.973035001057637,-13.164791369490176,-17.292248164566075,18.918864436956454,2.2038571555964808,-21.04473522819479,-6.717683495079768,7.28290154529709,-8.913196402290563,-20.224123415091935,-8.53536409945355,-3.5925895402323746,-25.201868718681276
2.2569608331638085,12.41498563035713,0.07433094563121223,-7.881987948067042,-9.997917152329865,14.938850575500933,-15.759425743667784,-9.969006454297716,21.186373462476205,3.405896548961092,-17.818836732941847,0.09085618270137097,4.070350657311273,-3.4116860866211383,-16.851725690096355,-4.5944376552865664,1.0637889067140094,-21.024338510700783
2.619382495381698,8.276267188626846,-1.5048379083805576,-1.813694769338305,-13.602538445129598,15.11367686924673,-21.969161546950353,-3.2334500658307164,17.00425949218414,3.4399766918551684,-13.713966574185676,0.8468473965508547,0.6658896997765602,-3.090978082438724,-18.170761655075193,-3.0956231508248986,-1.2148833337196834,-16.94496986830476
-3.3641817982710265,8.142207044592087,-0.1544287123566983,0.6410794470610384,-12.032014655536774,10.306152851382198,-26.129869076536664,2.133210865155874,14.087457238685936,2.306261945411105,-11.659830379572274,0.5307871766185279,2.0499628966649404,-5.60714670376845,-20.274877478248392,-1.8904587300818099,-2.3226947103918434,-19.0185397997677
-6.123263426413864,5.567452417314723,5.102122747525442,5.9278071087221385,-14.173142902764145,11.160960311734444,-25.995438426256932,4.959135807569673,13.607833932414852,4.3018551259396105,-9.21495673898932,1.7793865279042786,7.245891410748257,-8.127974281342567,-19.062402115190086,-4.104000223830994,0.377433210867558,-20.116029050750118
-4.583618420887053,8.071707764549897,3.717768033306127,3.792487106542005,-16.217212432007862,4.884924442558773,-28.401928385923433,13.252312255476859,17.81149310477873,2.9815053281489057,-7.551209382226649,-2.2434445670659455,3.9486977417824285,-11.727549607602832,-18.146624306779266,-0.5564279471946065,-4.540135700083503,-15.159229634194157
-0.5030785348191174,4.522049519886529,-0.8894837703608642,10.739339037485067,-19.043082404650995,2.6110178331045475,-31.396199972522385,17.930623518019566,24.64759893631876,-0.1897639030382372,-11.942075967160765,1.3530671861990022,0.45918685847139074,-18.456535872650576,-16.06262867184818,4.162336660079225,-13.85237685232882,-16.062379143884332
3.2862880829879346,3.121786951808023,-8.621986062178678,14.365891187242497,-19.427985334439434,3.6556276079819936,-37.02908037084755,21.533224208977813,26.889456654838373,-3.9422471980845533,-12.426435621994939,1.6312063252311102,-2.929771554830726,-22.552974193839596,-16.228385256271284,10.442917116715162,-18.86743282309571,-15.696454719453184
5.02664717360056,-0.9142498758991806,-6.784243082704787,14.086258031406075,-23.621953019038493,7.530457494833098,-30.554264272725145,19.07962307090674,26.00191169866405,-0.17020026652337172,-12.129303677443664,-2.2879955081610968,-9.929275644424234,-16.692379129561576,-13.467981452622233,12.52349950068448,-12.455970965383834,-15.428655845494918
-3.680563100676304,1.3985106412819102,-3.5795147834692935,11.560681567247165,-19.32004517644644,5.836935424452467,-24.178981454854462,17.796546378111756,21.39899836982254,2.4349867957939253,-11.53893559864938,-6.595935242447355,-8.625185511345247,-17.085778043435287,-7.097759241226431,12.943177967369902,-12.196068140948721,-11.743294036010607
-1.3506373417656814,0.1966963902134573,-3.7930395348651347,13.722921126044021,-15.897338442814156,3.067312213047697,-25.227573496126997,22.664592295117814,22.260526464653402,1.724989206084345,-9.190431262964102,-6.019143768007751,-5.3653589323156226,-16.311022769758203,-5.223255821930097,11.506630093327175,-14.278757697863941,-9.425587839961349
-5.952598411556471,-2.371162627740248,-5.56932870522254,17.252672561890904,-14.623315695126083,1.467711874539627,-22.07877920677975,21.67191201899748,17.355839650046324,-1.1281581238003646,-7.427541727492983,-5.440556981239162,-6.009365147227271,-10.461641528588775,-7.160810457410829,10.069346124956246,-13.039577824474826,-7.303632870862401
-4.107335828515399,-12.262128816991378,-6.271631073899224,14.630348014144516,-14.618988268861203,3.772548379342168,-16.099815668832765,14.525585287839949,9.614655556700182,-2.0226917416459678,-9.277621646362435,-6.325089873808187,-6.358026221255683,-10.670452422246754,-5.3907193462523875,9.998527719340196,-12.384527474774316,-4.010208567459166
-2.1626038581555065,-10.432883132661669,-9.5132901270945,10.836549348094945,-10.903741228120042,5.684879699409742,-8.950872038277524,5.815578483030372,5.677687672717744,1.189993144595089,-9.369459541631349,-8.770449045350256,-5.044238640388237,-10.784851612668007,-0.2058967156017495,7.680831884796806,-15.828977206265915,1.52893301102797
-2.8528216184946036,-4.012380966331342,-15.098996830602982,8.019802833258229,-6.407235478893494,6.6187592599862946,-7.956285277391167,2.8662742621401573,4.95897853998641,3.5294822458513746,-8.874912150315412,-13.557945217542242,-2.2634225881515615,-8.265569877190412,1.2647025071662732,4.385802724112717,-13.216216856025188,5.016864601699947
-2.17402539505982,1.7259192192632096,-11.407485907679698,7.352056089057303,0.335467409414445,10.480497898069551,-10.381644020546362,7.533221306219332,5.993652957625576,8.999869121262694,-7.500969840710271,-11.996088232443354,-0.06649506574762043,-2.0382024939567707,3.8063687272180715,6.265871425737391,-3.081078370385484,9.871620819935966
8.37000333582368,2.8757671334358914,-9.767060378753213,6.294261246450635,6.492366250462052,10.9223451400108,-6.461178549299788,13.273402036597265,16.30134983217812,12.523073059279035,-9.83750983106813,-11.213941723275584,2.9136481748055676,3.991111942622915,7.126190823920911,10.195983936513851,3.834385209415885,10.136093538654833
15.595463549427201,-1.3440400769744256,-11.251959927540044,13.14737811615154,7.473621402243371,6.284123482935547,3.8051078708811907,9.344515363375777,23.870162154840244,14.294526685883536,-16.665757428835654,-5.352089750664634,4.430775439544705,4.158396774609848,8.196841840306238,10.121354065066752,7.139837376598578,8.05642501792563
13.545225753770037,-0.4840654533288271,-12.737140805523941,13.555769210353837,7.185617399262956,1.8393564599924455,7.6240490118879904,6.9772509668911304,19.129628632683342,19.29488707352334,-15.778458571288429,-8.766268429485185,3.6058639385181506,6.47176005012345,6.04180817686067,7.5068416726226275,15.136476232903746,3.4373141360944572
13.742894705767874,-0.403715001509112,-12.660082518493653,19.824358404235742,5.140141172641673,-1.4353714317666224,6.851140626771011,8.710758820384799,9.59939481265194,27.42660379932538,-10.2029668418305,-6.319576179981299,4.638094010386607,7.1227241750794335,4.469806243667316,3.036044758986551,21.37917651222167,-0.7914925142513489
18.336930877094453,8.955816496816503,-9.360606265026643,20.03894821756537,2.5091618584712734,-0.41500383708332533,4.904403236151111,13.177878385143341,10.02578143452635,33.12328780026061,-4.333844489306298,-0.8441354188636323,8.406283570557171,8.552907667783607,-2.8668518511867624,6.084100255616054,29.090924274148747,-4.044034164574285
15.803709895142283,9.820877845056474,-5.280157785849191,22.988780175784242,1.6365420181942802,-2.423860974649659,4.713569551337709,11.784775376123466,3.025715265543001,38.63116385230366,-2.175023227309495,3.85135423976664,6.804739284171563,3.828786566903702,-1.5147547467833213,6.592254866800107,28.40856311373399,-2.9022757327864515
8.58466301266417,11.371353593294513,-5.203968067113802,22.32614408017105,5.159117899503087,-3.946252241003526,6.766929638871606,1.7970788730178473,-4.271781505744169,40.14167129681338,-0.9920512491167557,2.2003540772360584,7.06003396292037,2.7163108801763514,-4.0716845659875585,4.072213893364627,27.82858615285538,-5.471795713384266
10.05888717712259,8.626755384873455,-4.639782291633214,25.180095774080872,5.654978904586638,-8.20486938996521,5.205021283544264,-0.4763238263792613,-10.206517377089007,42.733098114942706,3.707361899952623,2.9920134068125073,1.1641340052183615,3.2625020369914743,-2.627297536384706,0.37946846604455425,28.620807796046137,-4.42824998934168
8.605096676264838,9.888046882370132,-1.6344464249509718,25.886524955946165,7.909432265532903,-8.070681963387734,0.12550521566117645,6.820107862608754,-15.95037243329842,40.155428560091266,15.438928472814837,3.1012374902001048,0.5428972505268277,10.936369789711328,-3.724595028963998,-0.9703086307773701,31.176116517768676,-2.506042099359311
12.231210400815334,8.221583596140704,-1.5591365125522705,33.91826877446252,5.8677762962792634,-9.89142584111521,7.739570056374021,13.82298447302675,-16.815759359169537,41.783879286079475,19.84699335103688,7.996812981099547,-0.9562104271580907,15.581685376029604,-1.211071869104222,4.1245019048775955,35.29944776733275,1.9550222107989619
10.58549095192509,6.75246753147861,-4.5115102332133805,33.845438292672114,-4.669193463412986,-12.397531328539827,14.08216346378267,15.063513547827608,-21.39654039406774,41.661395581919194,17.126903646774146,9.280127708419334,-7.923197945383695,10.167267462145677,3.1555004239057975,6.679382279068058,35.42455439309895,4.658014440971044
12.554774618330141,0.7931806963447254,-9.026701056217577,35.922127807056654,-6.8066095135573015,-11.682667863095695,22.08302285297516,14.350386587028414,-20.708181338457695,38.127857007526615,14.212389370132996,8.611317026496947,-12.838512971528974,16.08033667728744,9.08221661953161,5.620091738137148,37.41113764429736,9.020966863126674
14.916336817828409,-1.4529740344124518,-14.030473076839026,38.78115804849941,-7.380435190094808,-9.114020927095577,21.097460447727,15.004004976446037,-24.223457559357332,34.113050490901,18.818441162625007,9.506013661094972,-16.288194025547153,27.16863035535016,5.8267934084131685,2.8997795688413674,42.626635233748644,11.918842368544436
13.763847722140252,-1.8414418957861143,-13.370387602506995,35.781829232742,-9.515639758662712,-15.629232577816389,16.496658520597187,19.368191232609117,-27.059453202226347,39.77342919738241,15.612821588894516,6.007049872728253,-19.639539865184886,28.393030745828582,1.9831800747366035,-0.016693538579986678,52.145503877125414,7.882817202318304
14.077830821903198,-6.817582828466066,-9.19491358767951,36.49462384018264,-5.692498938672484,-21.950790671650154,12.675222590641962,22.07180488208387,-31.169290704458653,45.6362338854283,14.849619615121572,5.243395450041118,-23.771558762430207,27.37101492712263,-0.8860314101556295,4.390313107937717,59.42488850448707,6.776331838708643
19.569257986600313,-6.322599652624405,-5.8009900433583335,38.18514645259263,-4.309500296563791,-19.09415426259184,11.000368866404958,18.915596766643343,-33.134913186736895,53.068707732336065,19.75156529550117,5.945454902304287,-25.949920720841273,27.32546064158084,1.3208520779567579,3.8159190752658785,68.56661939799666,12.40804580291464
21.35125164601638,-5.239330437064017,-6.997267094049954,38.02134123580364,-3.804042186069365,-18.38759030342895,10.397870676276384,21.423212280520477,-32.272676799244024,53.965286296761036,19.185699158299077,6.257686695086667,-23.733266987171138,27.084646154759398,0.59596372807178,5.682107571706267,76.83647645016578,15.20750707484606
18.54486800062018,-0.5403373521832758,-7.803198108772232,37.85872117995271,-1.2463149588505846,-21.491247399793046,5.691876878674311,20.02422329895689,-29.94974646192372,55.55266343538834,19.402137651171284,3.0549990951804333,-22.98114465372802,28.01594967052864,-3.646575245276063,1.5903080475290412,79.35176044671255,17.323191221144413
14.177471980730605,-1.1124279647286701,-8.316438845318155,35.158198248200044,0.14105296536785872,-26.35427793956464,0.3004180751000014,14.523343066853972,-33.49040539814837,53.338597216855405,21.27981959295008,-1.2212079925721553,-19.689666908726316,22.990524566615584,-11.504355218865285,-3.185966271202415,79.92130199295474,15.727712270081366
7.956064525305006,-5.002401832901562,-7.072121166963809,29.626809695990072,1.5300309536660546,-28.972677400786292,-7.4366770124352035,17.12781611273958,-39.67189698635772,48.592645350578195,22.7679495854445,-6.180346728032036,-16.007382340379596,13.082772835442707,-14.969374497324164,0.1424766555079524,79.71716344481598,15.206302072050434
3.4939554049906683,-2.6397559790277323,2.570483294914558,22.24114066740982,0.7722246084840663,-30.030010671443012,-4.921548996012644,19.439102055587753,-45.857407078166474,54.01031407049549,27.284563578126182,-9.771647181962658,-17.500858139129903,8.839895588460166,-10.037599158841802,3.9583287061888903,79.22779351568796,21.130137454745753
0.5958018068367341,5.584921836836999,5.962715514034775,20.716157648009347,1.1880722995952926,-26.98713509408993,-1.6269871554820827,15.109471294637093,-48.8241710667134,57.18906329039892,34.73201669285273,-10.237312110613294,-17.138810645328533,10.26205621474922,-5.693475218384477,0.2536509936837843,82.65262540409262,26.956149414463823
-6.793204151051526,6.683194084120929,5.643678633922676,18.50879434635199,-3.667762377954314,-28.92617696885842,-1.94757768251329,14.393008271437495,-51.892488875495374,53.148334048933506,36.90706936018605,-14.120451620071268,-16.093203933224096,4.4585945081764775,-4.671353893114572,-3.842545439668279,84.91359719410485,25.84829412567882
-8.80965931010888,14.522500428807081,5.714999495756235,14.642472958986005,-0.5137531621968652,-26.08131663824827,-6.566912046031408,13.969369751989834,-54.18337351149261,59.85712918212879,38.69261685856862,-18.296058955553914,-15.438341837330604,4.125176175063164,-5.018015519492048,-2.861430912670685,86.01083951233409,24.251978757993935
-7.406747612438549,17.481608970822894,10.278304747012353,9.800794586239032,3.325842118089719,-25.77683687251463,-1.2269468804931938,12.764338717784163,-56.478015452481145,68.52622359520572,36.08469771925081,-17.97894517012778,-15.564921453423088,4.086098367181574,1.469854212480584,-0.9046340433179474,88.48357415891599,31.737656444571197
-3.951707045815299,14.779295529332156,16.11089028319951,9.159613721459882,6.288571300447801,-21.176646045533037,-1.3575912342984404,9.02009215340066,-51.06137766280321,69.38980767427427,36.212330398702875,-18.44266792178452,-15.984717603644956,9.908007438613346,5.124202367416602,-6.273066028314389,95.74993241823758,29.164402945360873
-2.936823712999253,14.32587331600773,19.208789791041422,11.058740423303622,11.108921706373156,-17.944841218743495,-2.4665745849024567,7.424216071345558,-51.605464077706344,70.9440621220682,41.02867062745135,-18.71068885424541,-14.061032163552156,14.462041209809938,9.265454570358472,-11.544741642491305,100.87631485509036,26.688614244001446
-0.8464494013034436,20.223002156800103,20.548581372970858,14.619244077571295,18.66588243302659,-17.83920782915588,-4.358566399505162,12.566636920039313,-53.227303900122855,76.21632714689147,48.67821973223296,-17.122864772747555,-12.821313225465454,22.82655260188652,10.86628238143664,-11.836776633402058,112.94498108412117,28.11893135772717
3.979566716976745,24.26746506285704,19.349003437085468,12.907411620900879,21.53753342613157,-18.22293102473816,-3.9085033715543283,12.72843672034557,-52.11815739373753,82.08149833947485,46.17249409429204,-15.632388201993223,-12.460931661921068,25.040600039047195,11.391612374478171,-11.836745001370206,119.35816202921689,28.57245454087245
5.486413729299562,23.920192382832862,21.469520312518053,9.927194360863089,19.723941567005646,-20.75613457714479,-3.8507860406236736,16.601163359601127,-47.8873016829234,80.82455058890423,42.10536807372549,-14.239296193976038,-14.737779390565063,20.42072464767338,14.747813519035823,-8.712574467257674,114.5494354998456,28.928088798436974
6.7014503398495435,23.28283917533126,22.4178754329663,3.3347880099817324,16.447877774814486,-19.579294369372374,-0.1814303226174716,13.930761319984397,-45.31987012317386,76.25406529586273,39.89485319892424,-15.092095413266954,-15.061992384521552,20.58834010943164,16.83331891274649,-11.741752234800598,108.57760732278214,26.93968951260878
16.316184018402787,23.23435343075174,15.943972441041293,-3.5494652361347008,15.127426994569305,-19.770551330593122,1.5330898781817974,12.529855198345794,-38.068009756878645,72.6669058444304,36.122916581414515,-18.776768014687285,-10.503885328345882,19.391148612055137,15.792688425824846,-15.260130968984498,105.54435079572295,22.314264915295126
17.435794210897875,21.723949272667177,12.497188051104493,0.40739362709083693,15.274363047674253,-20.25560696470154,-0.6603624215408286,19.62512134999731,-33.55360511813018,68.20749139729709,34.69585324247883,-17.285414359667048,-11.219907181819888,20.540281226908206,15.043998578365372,-10.38085761197967,106.81691216086762,19.934681504029808
16.505660206082815,15.528946266354422,13.249413153142466,7.29506191874991,14.93559207555658,-21.718000358747215,1.2461658152575055,31.40790970742431,-26.50303073401715,63.36402042913285,33.56283346943225,-17.844741619999628,-10.667030408038103,19.64127364623144,16.638116147248816,0.2593078540929765,104.28972660841461,22.82830674893588
18.40863746006275,14.90343043049111,13.22010048172271,12.035309107671605,14.404146608594685,-17.223965191174237,3.834672545940416,34.98739860035522,-18.771672460149084,58.42936964007195,34.774650073204036,-15.864869772959702,-11.97034078400552,25.09282250007711,18.035992681365396,4.843778166322301,97.57218063755467,26.11222920625178
18.457122968340368,4.905789137388981,16.315556585099745,13.651527478962162,16.707474213805185,-11.753977825537994,2.222290132894873,33.78160721392454,-13.875094127343317,53.79406734807699,31.00695028017747,-17.59592733090061,-11.71185251318996,31.230906749860445,15.42902760964933,6.0093118888093695,96.0394247189395,23.829300335129933
16.8464008735515,4.481643895832747,15.016131867067568,13.608550597780042,19.794818234045138,-9.89788212310643,2.463818332037837,31.403868493870895,-12.594439335594156,46.332957289579014,33.97863815108129,-17.76442887061481,-10.770517358998788,32.098528984573804,17.899440508117348,4.5371708031971645,88.94910495415253,28.96797123823773
14.650675190815008,-3.263776106562066,10.298399569093247,12.004001492268221,20.931816048019364,-10.972002509629908,9.83279546754086,17.111825900835775,-16.49211020377622,36.53421384811193,25.81832003762801,-12.171123536129713,-9.927626319079419,29.648965534654366,20.56439251226274,-3.3812968210298555,76.98481330409047,23.852160688689214
7.865947734098666,-7.783418390240634,9.779658704606254,2.1971169969163284,21.77870151501594,-9.800405973130692,7.629768813811149,-6.457768348462331,-19.220228605603317,26.253214241027635,13.069034932113336,-8.042715521937417,-9.866809608328325,22.222153084024328,21.373117575301325,-20.57816504372176,64.63878404208897,12.778777087879575
1.2774172942201858,-7.905375212366142,5.451969307192088,1.1803049893097715,18.917504143090934,-8.726804180159979,8.84323912211538,-27.976624760803666,-14.235597752254716,14.610913653374887,3.152739153103539,-3.5237386756482376,-6.974753818282052,20.658215747848455,16.61466638013585,-39.24081398541817,53.961798587798974,-3.763924902896907
-0.9156633334677711,-6.364050115776648,0.04974227040258583,-0.2263030251478817,20.160891658320676,-7.26283310251948,6.832501845078133,-43.63610137989076,-10.522598469819116,4.634571794884195,-2.1727621797291192,0.6045146508937549,-5.548419422015128,23.492399038150232,13.222781559385266,-55.07230215449034,48.274179851935706,-10.639031443693325
-2.619633257019869,-0.5226726136543878,5.487215509711963,-2.999327327681442,21.309627822296303,-7.6545442887139235,4.624969174652413,-35.66250090742855,-7.202176881714333,4.039015054279275,0.9988041327800978,1.5099400062304742,-9.787106072243017,22.521561018032287,16.275706924256518,-46.39261006919795,43.864884558364636,-4.623874798825547
-0.8071314230195146,-0.9282688151000027,9.068875879932293,2.52930357442456,22.461415010307647,-9.511229241770563,-0.025464201161776723,-14.016925698844721,-5.836719787751466,4.6208535667658595,7.979828022759005,3.098817414682925,-12.366496996314885,17.64814877408206,15.421761555666293,-21.795617464861074,36.925203040231054,6.664201839877205
-0.9470194749634402,-1.3307352027559887,8.84156111195537,2.101512995804221,20.491248200133658,-10.489023687472827,1.8657369844659675,4.308163183129878,-3.3986974981046743,6.4776010073083015,9.29746809007456,-3.7110521690193936,-11.82173673393735,16.001278731212977,13.493057638808569,-1.4964749557854269,37.41615859673335,10.822624276263728
-2.6486938695376576,0.223089496323162,7.734995412092131,-1.2553575312749636,19.50079315097187,-4.533068340948063,-1.4203324479874868,16.383017869593445,-0.376256390562709,5.01919539229106,13.936193825454763,-14.525099319362266,-10.496618589307488,17.67870657301745,13.419363261746565,9.328958986215675,35.96253385268682,13.906129497207141
-4.349657320291984,8.127808379091443,9.753137605893624,1.736127164620683,20.466665937415943,0.055809076705578775,-0.7038208245539361,29.33663636780051,1.570566725868428,9.42531220702687,15.841180814313716,-11.569643917677583,-14.15295366795996,20.239083272944168,17.837471435299317,25.23168951712742,37.83776460221117,20.602244459612958
-4.3897538565797,11.152784439707398,9.134171993783406,6.48600148291453,26.709266390495323,2.3011120566977503,-0.28164414580337715,28.813312524566975,-1.2690751779258775,14.910566448865026,12.570939176865418,-3.829226387761837,-13.317942510182615,19.776190224543658,19.81371476350452,31.27008434813444,34.15490675138177,25.73506273570737
-5.405767047804694,11.837120350826396,9.979714131920755,9.869164310567328,24.75186102831976,4.937338823859111,0.23685357980419708,30.92655381152854,-3.5238571032824844,17.373173892195112,15.160745398457555,-2.729830441643921,-16.487806740829765,19.61047810652111,21.49659379716835,36.2333420806958,32.042878312780715,28.71859009426405
-11.011056757527474,9.985500381014951,4.672450276430048,15.498897048016342,19.575027248905005,7.0856517324453065,0.8516978494296958,32.55129163095571,-6.951467014916666,10.367561390523178,17.65342748558731,-1.9237309130441176,-20.830467033148405,20.32797738542979,21.518928546746658,39.04722956275219,29.15778952872823,27.501964657037725
-17.982939852328364,9.601889947513424,6.786795827055398,15.660181743318304,20.16330779740264,8.843790959341302,-0.9761866165202403,26.65614656021357,-7.74309975135176,10.886010522277587,14.873073753690313,-3.9500568588421956,-19.900504588462066,20.85453345835385,21.931558027204424,31.8014718033863,25.30421425474391,25.112525538367954
-24.7589135155699,10.393312229351253,2.3576830164940614,12.306115284030543,16.165010885712157,9.039946388562008,-7.297585929427849,18.612271004135632,-6.582204388514828,4.57266562498981,5.257107376964672,-2.9493715989191944,-21.80350081439744,17.772202477450527,16.386753700718952,24.164186985255913,13.548335920745856,18.718146005666878
-29.776473589383244,6.500297553010297,1.8344786843448917,9.44060573119788,13.146654400040152,5.3304152605267685,-9.811565277949864,11.642345969806414,-6.10538312664864,-7.010119722855073,1.403322412334493,-0.2889111834471816,-20.77763496100389,13.42484379133702,14.650312255586886,13.010329266550297,6.487879948298897,12.029766538754474
-32.3520341641736,4.465907587572686,2.678069825109414,13.216030127267405,12.084840493291242,1.4262748531244025,-6.760257972167254,12.77770327596222,-7.289055037145577,-10.971696231965474,5.460133376016589,0.8085912690833617,-18.385413751829166,12.695414534535695,12.913602612359774,12.304957255192033,0.8023544049322595,11.785716251608392
-39.80994254219534,7.708154674139257,4.4001555915617265,16.21033840431349,12.003014593954243,-0.6215790769335676,-7.1281482708798025,13.424435330604442,-10.230718117128484,-14.441253229928435,11.958649800865762,1.222027674222483,-17.263576040470156,9.333886025808667,12.934483003225989,12.672929588229492,-3.3130593802376893,16.618730587425723
-39.161734537039614,4.996388502552833,8.367931837114059,13.73589606051407,10.948042835737537,-0.5200901208372066,-8.57142211313154,13.191883793508541,-9.461377897808116,-11.85247545868959,11.914301416821397,-2.6619661969710027,-17.314440974966615,9.981047863292218,13.638735335572543,8.743072171428864,-2.8311106677698774,18.423159754856133
-38.70833171982446,11.272231503968836,10.968049329523108,13.312285029757467,10.091837174421734,-2.7614312480339773,-5.621217294459759,17.45119614434099,-7.5199734605231185,-11.213474917902033,12.846674975492322,2.731007546568218,-19.612217637307328,12.976778338058931,14.440428375245626,11.355395700322504,0.09958633094889535,16.515341125602333
-36.30127582910118,9.347908003929703,7.708238861311928,13.376916410552372,6.992971351855253,-5.880653476938299,-0.718948108787393,18.78035513083722,-8.703282206481159,-13.403349704045375,10.75174292847851,5.486676428950304,-19.859936492058107,9.14130638135564,13.484078445533552,16.408276562187567,-7.607253884429724,13.043685528737477
-31.35463077128466,9.28215024441294,4.545609132061319,15.199274845230068,9.85471099215425,-4.115867543572016,0.959554871312164,11.51518212726178,-7.737622141210792,-16.46912432779662,8.461518674101143,13.41763124553433,-19.42477406397834,11.658480075579519,11.062670356472992,14.917204079135082,-13.842223922302892,15.430120838579995
-27.481741575929117,3.945926640156829,3.726274456238213,22.39262990457651,7.739402897402993,-7.037449756387515,-2.1482021050005713,15.382510329220667,-9.701031005318695,-19.43440133350486,8.319726150118456,23.398795613954814,-18.697326654628505,7.344554355839925,6.394952007647573,18.89408165643092,-19.777372785234846,16.936201774960786
-25.268561604638883,8.280853335916454,2.0275154702505223,18.745729164873495,7.6784163404214585,-2.04746987077794,-5.061643771856232,15.53833239306471,-12.249557713494404,-20.73683721412499,11.107564797648704,25.664366496578403,-16.60332169193724,7.820846875871684,6.121657810353463,18.768452096619747,-18.088529492161285,11.995375196274475
-21.590048356212982,13.59537184469425,-0.843655184868199,10.606257520336223,9.08581519024806,0.5024328778978244,-6.608846310938404,13.252167655921939,-8.839967925308997,-17.54453799096482,4.6177540724774175,23.53467766795057,-14.216954169753816,10.548299727921535,3.6020678105018966,16.298156044516816,-16.979106828503177,6.857673869127154
-20.64548809462179,16.276124673513543,-4.398963115015972,5.4937921887029955,1.4145721924665757,-3.9775747146641125,-2.297522331424349,10.867770245470341,-7.284714819911683,-20.99066644004484,-2.360572877144687,27.361419789883584,-17.202330209682728,4.393970667916431,2.2542076158710564,16.561397317802072,-27.484594807656052,1.5230346401926305
-24.97398375403479,19.057505972259154,-7.1735566609559385,6.240338402366467,-1.5655641967591407,-8.163082283456541,-3.846568908671309,4.283483183469418,-6.802370313860418,-27.852697220749036,-8.362613739739135,36.16798523418571,-15.110026213700833,-2.0482222052098606,-3.8790418562248945,11.74555806977776,-36.81199729674127,-3.61797513438178
-26.37228510881039,21.353545289729748,-9.948712291378202,8.939516967556687,-0.14756163871327743,-4.9249957624881855,-7.056671090420026,6.097122895614952,-2.8028544803673263,-29.732244222261016,-8.60320325367083,35.11036681359786,-12.041619333317657,-2.4304919402144947,-5.52019382789646,13.960199505483168,-37.63715374675398,-6.416949125602507
-29.527961895053203,20.722773708997217,-7.939215361159093,7.145847194318243,-2.925297196740072,-0.41567465533211845,-6.751936150898901,6.8358564755192415,-2.610331865746101,-26.727143961340964,-11.578628919273278,31.317548393662932,-9.65724075433609,0.6104332382918614,-5.306007383077656,11.095763371732493,-36.99159323966097,-9.510710519094587
-30.43704325323491,13.551828065663969,-13.156982573970723,6.1327770624045925,-5.894800899242643,1.6539640342750044,-7.131614059459638,1.616764843357931,-0.6581456494944931,-36.41596745904274,-15.335800034916375,28.500492444514506,-10.98422763430444,3.168271442460199,-8.217028898189273,6.277299009028001,-40.637295767805455,-14.168874285074939
-27.14636916258565,9.215823309469709,-16.422201040950217,9.122941968923138,-3.00129162770504,4.60435949519764,-2.9221536489459066,-8.290633309909989,0.6124258097734021,-38.77905459253905,-15.480182280212354,28.417006138031482,-11.041980123979052,2.508630666279995,-0.09288917681974418,-0.9834804567793132,-38.027399962083436,-15.703933291948125
-23.56224233177511,9.081938419780801,-12.07073651078164,1.5652686748029794,-4.401174476297324,7.556666898914514,1.2865648203142568,-16.73393204158885,-0.36097682976257417,-37.82054791966364,-16.601753206653306,29.797506208301545,-14.713327890013042,-0.5872054093808856,6.761531939082199,-3.752873438279156,-39.12317084215387,-12.16279708092396
-17.633841673530025,10.025095099116305,-6.6456722196515,-3.942464121031314,-4.625617421068048,8.655462730465889,8.42430738764048,-20.09982630527704,3.6484829011700732,-36.27503778732022,-13.622373768507256,28.05204573975434,-17.31063990707232,-0.45506901281893875,13.225148098455971,-3.1051127867356243,-41.09271015541077,-5.401026912476361
-14.537017260527854,2.6701185016778304,-3.467385929666497,-8.767534268734597,-2.991018964323377,8.096134640089506,7.553441283542698,-21.02510597528535,3.461140170175902,-32.67782993964875,-18.554009021586552,23.668879834000194,-15.318175955576155,-1.0012537797373682,8.653258218963167,-0.7003774995571215,-39.24862300740713,-10.555636467530054
-15.053019291000115,-0.8734645141788775,-3.512469572847266,-6.073969044314719,-2.9154039099068374,6.171726549190264,6.486620118429216,-22.341875860218927,5.522567452062145,-35.42765991841219,-19.3848194289372,23.77698947313659,-16.54849168169172,1.680563033896199,6.03433297108718,-3.765337425727708,-37.49739580020443,-13.563974797273936
-10.880926608358223,-7.1487565284976,-4.827782794759793,-10.608155780869229,-3.519857668357753,12.843397094359094,0.8292802419992265,-26.491609168356682,7.293823857728988,-40.520728139604344,-24.415774791610914,24.17705736119013,-16.802238793083212,2.02390058968896,3.512865199334273,-5.073316496224738,-42.18695835577222,-15.597997998791893
-5.731718620964431,-6.292360794654535,-5.167211923906782,-15.045831916719791,-3.4371780802020186,21.958776142947684,0.15191508518076935,-31.423522332665357,7.993806394204036,-40.82818504269388,-23.78350454562102,24.380759938052392,-14.321510691913222,3.4467873955279664,4.604522168691878,-6.479808056973008,-45.11423689263502,-14.118667542939779
0.6875940279744839,-8.265402775866505,-3.1635628399955045,-24.562924896646727,-5.40178916108537,22.09197386293823,3.185009150649365,-35.086830973228075,13.872767778114177,-41.33073839636178,-25.691319269561745,17.844993403460574,-14.868045058040227,5.753912870374929,1.9849607407245458,-8.082465673711429,-46.474722728106926,-17.133980252201162
1.150356069206989,-7.110797200322224,-3.0161324881481466,-25.096786521429486,-5.312074165600524,23.594774658911668,1.9206630851006192,-33.2822795361289,11.356437745071254,-42.907468287991485,-21.838370596465325,19.31604099887656,-13.363568802344261,5.722573828323153,1.2206582675150024,-6.65857925113622,-49.88192730999775,-15.36651228181886
3.2738900431823232,-8.785703948113756,-1.9905181295884886,-26.315598507202033,-8.636875890894661,22.1703000217635,-4.617664974331879,-28.744311054919166,13.726422685652611,-44.28898178783972,-24.822565613182693,21.56719417383009,-15.179185519747442,-1.041828414761472,-1.3017366387484053,-2.3058013250489733,-53.96881635319538,-17.117232273402333
2.37064448500859,-12.020610933000288,1.1828170171728072,-28.70771396152786,-12.251156972240167,22.310866088197944,-9.300924271473455,-29.48088550383268,13.951517010377309,-45.86606468497731,-24.878187910322783,19.61787219275668,-16.408512087117657,-5.457126975538934,-2.9454811223731525,-3.9109804742415957,-54.8292531419918,-23.265119806894273
-3.0242254497435486,-15.741322303754288,-0.8204712436131751,-29.148148479539685,-17.619794764654657,24.016530912926154,-11.8361056854451,-28.65598527173924,10.371688660970147,-48.224815265132165,-25.13034170908047,14.249300836770843,-16.27021177005208,-7.425669589686255,-6.24969363880658,-4.149779810289802,-57.34629619599036,-23.75148668679166
-1.0941108066801917,-23.36589896323849,-1.9456165438416022,-30.078407631027694,-23.082619836858406,20.451308641373863,-13.88335473773029,-27.14855308346607,11.385650494569667,-51.95132872006586,-26.16502886130058,10.246673142186296,-18.08457173672646,-10.951431559626261,-7.601056057201305,-7.026159663047672,-61.9107464325692,-23.166304793861304
-0.0422382756978017,-23.859056937247804,-1.8996590091028358,-27.20161162309119,-26.686490403102823,14.64264301438616,-14.563715561560148,-21.833563138769993,12.794264431801825,-52.45583682000891,-24.466624954674977,11.125631497918384,-20.484306561357165,-11.8351404526381,-8.073822775240927,-8.047856299730412,-58.366367111718645,-23.365128280370765
1.2056517948434369,-24.545168020611843,-0.5849540612878191,-25.205391388915686,-26.38060777509699,10.203922000699045,-18.564723351658117,-15.836083788617351,13.230464261642727,-49.54316635767082,-23.062572940793608,10.245413361024188,-22.004472130417994,-12.127621598648577,-9.132880113629795,-7.312519071895901,-53.64702414134884,-21.320623231938672
1.673007486040163,-23.764092502248573,2.682089511744823,-19.792864334850083,-22.946248542569844,8.600061022864743,-21.980032065289016,-11.890551172951923,11.522496523201525,-40.57669725987742,-21.659951339506932,11.512292237042,-19.91057288469111,-14.95393782226391,-10.973564695874794,-2.3786953550341514,-50.877929546318946,-21.036811914422408
0.2856200552351247,-26.59407529648121,3.1162296765750686,-13.210214960950228,-17.94595201204387,5.436508785123452,-17.19230145382698,-11.16887631090388,12.455727042119829,-40.49819924829515,-18.403313525113973,10.043345205839419,-19.866678221050947,-17.77500533510937,-5.0996751616645355,1.870737726256546,-50.645191961483036,-15.482390803103728
-2.370536797340332,-24.53893596839656,3.4518706017379643,-12.781828702522738,-16.946225618412548,5.107908249898758,-13.088349299987428,-7.22566518777429,16.030289386233505,-42.764735726506366,-13.292708599895676,3.7877240738167934,-20.505499683039336,-15.512641385062299,-1.8629548518474852,5.72876406375741,-48.652030751529345,-10.22390365580699
-2.7797563624899766,-15.938536402477757,4.079630913099717,-13.234240912907419,-15.454830336805784,8.493221337861566,-9.863454494473128,-5.5297667613039625,20.000185982920893,-40.24742012199654,-13.945488035497004,6.31981940996573,-14.111995278808593,-10.803626938810893,0.20143862764034814,2.3593533353424068,-44.89860347858518,-14.050598423223043
2.476011077873686,-2.1601289220118853,8.417519411516633,-13.102637158218526,-14.15538814038024,10.123654423005014,-5.369110181093748,-5.104617796338742,28.271853647867076,-30.895564775643845,-11.572501575888314,9.826977112992163,-11.916724318336398,-4.233932639248307,-0.7620162844957683,2.407211547358062,-37.92019913948731,-11.141971276492239
4.216967457000473,2.635869707738448,7.481012141773326,-12.09409418803931,-8.26268832506126,6.971854905748767,-5.56240199064141,-7.903385900709132,31.56793091812031,-19.494520234415706,-16.03722592771607,6.203570362650274,-9.622665289563304,-3.518546352776376,-0.3587465407010093,-1.2566631275363802,-31.720937631436676,-12.924026591083322
3.517378059765228,8.801135020292847,11.035871508906745,-11.087579892720829,-4.4174765567231145,7.53408100813032,-4.193198133202153,-12.461216400237912,34.08782099524536,-15.028916245761703,-8.88239173705139,2.090291683976366,-7.132079514918583,-5.630106700403047,1.411221870628646,-2.186845737253315,-30.402593969627915,-10.216984251643716
-1.5758811919845108,6.374532130711296,15.371092045939971,-9.985482980387772,-6.428424816777885,8.685317324965283,-3.312274870091265,-10.867842379984992,35.05037875008934,-17.4012090834265,-7.9794075477240005,0.514497885503614,-4.249570736366895,-6.759992529954536,1.8134455377613339,-2.727107013241681,-30.15666352954422,-10.54053636058458
-1.2970050337355055,8.442152364009399,12.771701222870163,-13.182446387405994,-10.389244403153038,6.812257165520615,3.916445706638523,-8.494448179676006,40.803470397685366,-15.576184474575742,-11.96110565140332,-6.531778105805877,-3.2211865122661543,-4.271477698074786,2.8987096466292552,-3.5610351468706964,-26.78400797879571,-13.50409670119361
5.428273397804698,10.414035625191005,10.269045571256513,-14.233102041795357,-11.319412269303472,9.239258117329399,11.340561838380076,-12.470056046850495,47.24558017733288,-12.971970029715244,-12.526617336595656,-9.86874025840373,1.7149598226916254,-4.707665741972921,7.69437614596302,-7.911318587038329,-24.5817095777142,-12.07635134004002
5.904480022854251,14.926894144222986,11.281135558744225,-12.356228914462688,-13.12526052963739,11.376430823001375,10.756858950707066,-12.247635841056205,51.93537004301306,-14.37389806147838,-12.019766107419235,-5.785425062596147,5.187771934459775,-7.384989517634157,7.118246599751451,-8.16063561347405,-32.827392488700355,-8.210497032306034
-5.825474806619617,13.972746042171158,9.264892503369325,-12.63006846995269,-15.513839294232318,12.735508334137558,7.9271789921514895,-16.225757580112578,43.446985910476194,-21.44224953899635,-7.2178828167109845,-10.00475828564096,5.830120054952339,-9.569071409909157,3.9047085532004218,-11.242666746211084,-36.579558435216526,-6.0081993977055905
-12.964426978041535,15.364162922786074,12.52121459467862,-11.441321359053402,-14.871836345901873,8.9219113931449,6.562551009065693,-17.275409167858648,38.96828754276409,-18.356566291575582,-4.273439905869996,-12.85865216478977,8.13433788872877,-12.431845465029774,6.256982456828614,-18.622257991989063,-33.299239220689515,-4.297604657896724
-19.418653033913706,18.319834854586606,11.870264936001988,-7.032183329871817,-12.46882733053123,9.506114854136236,7.541929184097842,-17.05677368842383,31.858642037767105,-11.36703577256381,-1.8192623616332,-14.93308047660869,13.565368105278019,-10.309205961017263,4.40926406755315,-20.142983192446426,-29.920264497990708,-2.004515333979878
-23.430280389350173,18.542772878066636,14.929338363826362,-5.457467354965411,-11.625201314779568,9.116956579667015,11.646609521535732,-15.569851214375042,27.87994537134676,-8.28636564154224,1.804799511194343,-16.814015743263685,15.873190658711081,-8.767689321075114,2.5608055097260394,-16.097793275225516,-28.68888943014301,-1.2774379221931556
-24.999275640261256,14.763377618461517,16.2295929985074,-7.205493213207966,-10.973776741261993,2.3832716620280383,11.064006418459078,-12.228693954789543,26.15336303027451,-17.122575417236753,7.770608165192897,-18.0131940145737,18.085269420328927,-15.619962010787294,-0.16734401523483022,-12.053156009783102,-32.73028586621705,0.5203518052837524
-23.149027900979803,10.00898993468005,10.20452971875322,-9.932504196396055,-7.8778223609972855,8.64130066037622,7.942623256256866,-20.51006728617303,21.30780026258224,-20.199695358626926,7.972542194141933,-21.94865954188302,18.932126150458316,-11.432183008528167,1.7912751451076732,-21.095184017487234,-30.71627713437129,3.095847336617082
-17.684188192972833,7.306950383877004,3.494867458105821,-12.759607659704738,-0.384212066289253,8.359500754003225,4.919251574383452,-24.20278218381872,19.886402394515965,-15.271675084252829,0.7503924921691194,-25.007097812970592,22.906087587250482,-9.778829465965014,-0.05959229681117861,-24.375907746108172,-27.725183927274376,-0.19170947749298328
-13.878241042666527,2.164953264500573,-1.8485880572083193,-7.581236135427044,4.866298125874655,8.471573880393642,4.240051378386265,-22.330255702914204,20.52203356154555,-16.791934218164318,-4.813697182367817,-20.05951413165866,23.366496261030292,-7.339591494511987,-3.571508274978491,-17.20772880971253,-25.71027628254174,-2.1156762079591216
-9.582682858910175,-7.663179333806562,-4.751607879405972,-1.6240852931464058,9.436201344286207,6.926707051540694,5.416765347582507,-19.87302568675441,19.113136919903596,-19.096394385374822,-5.497046031819833,-18.141251867822252,26.75882991144057,-5.286417255615811,-5.7171153451551024,-13.848649253928288,-24.671666479108588,-5.996444874779753
-7.043608569489879,-9.48199127484079,-1.6985188896050705,-3.0914261294008725,10.884022312524126,8.998414945557005,6.691584909512243,-16.147479716237765,14.097252602837122,-17.20457789300942,-0.713730795733877,-17.494488777274817,25.46584959634128,-1.7638669720346796,-2.0041902057221765,-11.271249967143063,-12.695219563877615,-8.318364195189085
5.4579434422330735,-13.447937772115107,-7.9239333632624795,-2.8034498132105323,15.850454494800452,13.905429497852433,2.3027334895857314,-16.23181073676589,6.743990934016672,-12.483756693706823,0.8446879182413216,-13.822299664750737,23.198612000606722,-1.5572292051587038,2.586689444550964,-8.401265494441198,-13.414215085504154,-1.3664985608445264
9.952981410487055,-22.588459129837556,-12.001899761514874,-4.76414034219938,16.229871471116596,16.96017017630263,0.35583293113631487,-14.65717448998695,7.307470053000749,-8.059038638154046,-11.173530636914569,-17.476418600841527,24.93772207994383,1.9741610660124649,-2.6868609310602025,-5.336322126243183,-9.640994336746218,-5.063051317515324
12.789290398321846,-26.06359663915013,-12.565212980378742,-8.387565830746567,18.565306690630518,19.236860249407705,2.315778041874376,-12.986082777561226,6.6079135344943865,-2.7585876289032996,-15.28370248273085,-22.79270847465855,26.386297009475086,8.634925033652161,-0.3441391021838589,-7.545220736508476,0.9681277318156845,-8.665693897729621
15.431767911127523,-28.072683628392785,-9.027928996184567,-8.400220764124668,19.34104519122663,16.438544407776345,5.838811034239534,-8.777078867709385,6.305549833237343,-4.688049544768262,-9.337374751797812,-22.349191014090525,26.665472290798093,7.584988190413885,4.438961352848222,-5.848100068444344,-5.31777764141469,-0.9438075203159073
19.247653080295688,-21.97504429990829,-10.765192399397975,-12.126445998536093,23.049305503508315,20.088818375042653,1.3545005974070103,-8.866190199444143,9.330153753937722,-7.597379174187754,-2.1237600413516784,-25.228044155789767,32.02539577178496,9.566634570608189,4.826365213377498,-10.79196127917492,-3.0101354209758853,-0.5500403712945303
18.182196072381828,-22.22407473426213,-14.944929346244223,-16.14822886500468,20.80319454268954,22.668015682910426,1.460721656528412,-11.690877465482245,8.943379560819068,-8.556891228667265,-3.1156737063560715,-32.40585149876976,31.919081212860995,14.0915060601872,6.579845713448266,-19.34937856976935,-0.11697271202650938,0.4258661977082401
16.14173575674528,-17.39386986767022,-14.34046673540266,-23.102334472479875,15.630062291180995,23.00422011594911,4.009029578334625,-2.993094096505299,8.660939972679586,-4.7345549677556065,-3.133301321500717,-39.48801900207554,30.64351599845802,14.421147142291105,12.531443897150425,-17.94588914886008,-3.181447831425359,9.60119913199762
16.837294657754118,-12.074394000874781,-8.46351455200802,-25.762094067260445,15.928433200352586,20.218485836047716,10.95260399666087,-1.620766438692069,13.36575181879129,5.432112868369337,-8.329092260243394,-39.9314803891511,33.17928872990258,15.73134456383799,13.794272044725616,-17.226148744017998,9.671685929272762,1.5849307279594544
13.823489391076194,-11.148584630581077,-6.49389804271922,-19.635253516669295,17.49898200029738,17.14285830497094,15.553084833762114,0.6293741177467993,16.026483390564312,2.1185535381730283,-6.984128059238995,-34.61515566823634,35.91310383207711,17.63139185419093,14.860552928619228,-17.580749358031923,7.387182726621518,0.9867977522345424
13.741072750856844,-10.221893913398283,-10.384768645199943,-17.319661119693077,18.97445664100171,19.05082368490444,11.951030814744174,2.878427232045574,15.178289939279397,-1.100841536075908,-3.297700519054832,-34.964998811427535,39.137972218098426,19.046976338785612,13.386467647467732,-18.716677831578735,3.734702003107447,4.779398033254681
18.25025172162885,-6.950586522547437,-14.569630743456713,-20.08486524154928,20.843100893934405,15.981257900089659,1.1230415988914375,6.298305933145585,19.122096517706115,-4.030788347557497,-5.863698381702814,-32.582440574214615,39.6312229730444,18.80612559014206,4.586753977865804,-18.778396214915013,-0.40691597514668487,2.2203694522600053
19.733746853147387,-2.4089480128936795,-17.974243682787744,-22.46202811975374,20.858740572375076,18.676475038815354,1.3311359597332775,0.7326261652421078,22.389082625520217,-5.987711257784817,-7.4554551371069975,-32.05738919276018,36.611625444541176,16.225153882648236,7.89526948060155,-19.133071071549956,-6.209641002104437,6.2005245312211335
23.46509921632295,3.891259921078129,-19.036077003015734,-28.748083971513452,26.15034331964482,18.7378694115955,9.54794441737377,-5.322367044511262,20.779974213241456,-1.502802483302304,-9.049553113722226,-30.655420453188764,38.77074648309102,23.608852948238066,5.440615263921458,-18.706424591073525,-0.19677940653452453,-0.9561953401971675
25.147390119567085,5.50457604683209,-15.80196816199642,-29.958512349475733,24.022354323097428,16.653687009739674,11.417798721181642,-4.0540321879210275,22.59568382486531,0.4394030435454539,-9.864734002173222,-28.278867211153916,36.83112542174413,22.011535715460724,5.133036165861498,-15.935889436895447,4.545459570969655,-9.093391296881048
29.761184908306994,3.505185127537077,-12.275875631565365,-23.163570722894146,21.506081090714105,14.767668257970309,12.995497384659677,5.025942340474447,24.320533334437776,1.5967245763311482,-8.53379175631991,-19.556542472907527,34.9920663678203,22.761412623193834,8.437366562566645,-11.895656479690043,4.891958551256938,-5.222588468710729
27.93135980912743,0.6274535072614755,-15.391488943824601,-27.60182163990312,16.062371434878965,17.083732580604707,7.835647250053785,5.511079655194356,19.11847737401915,-6.038789929184102,-6.814566739768699,-20.69961797224793,30.909801449635165,22.245057967152256,6.3690630781139035,-13.03109157409831,2.502831750607978,-4.578397339887262
23.759557832656956,0.48466718408505116,-20.949514105228264,-32.140268578088374,11.2068519249788,16.0821835329668,10.09863738899098,1.991317498953407,12.848972757155167,-10.064622166972804,-10.371207670141237,-21.258700586458204,27.123446395847587,19.192829940064158,4.29927063668287,-11.236556626634405,-1.7430662453627548,-1.8873014157169017
23.691206366920607,8.936240166931448,-21.527950545303057,-34.72808301183669,7.623073569536297,15.962251008162692,13.436730499914155,5.404347167465595,8.930028802648895,0.3592249327531256,-7.973072994544607,-24.944767763987286,21.19156877194675,24.346986945855598,4.962375736705146,-8.07452920935949,2.896553155889677,1.0928600610664692
24.210641894841732,4.692734689233509,-21.32606761888524,-28.62686311025116,2.0882767129733093,15.747302250320889,13.943631838915588,6.082077177518519,11.463255068266545,-0.25592834198988257,-11.925035333976497,-20.33184553720328,17.411116794105663,23.44940413224287,1.1316760000779622,-4.130908946629878,4.214411830144819,-4.036476927166332
19.360755965459347,2.5980768150926448,-19.464931047639695,-18.035872223478485,0.5595282550510969,14.363044402599268,15.525664928000783,4.317505877758373,14.491509987901253,-5.269362704685502,-13.828525229308456,-10.935592544315233,20.17669300271759,21.089898763092066,-1.7240240549109096,-4.776824247421867,5.92144547502178,-12.294764443067724
12.16895077588978,-5.258060867335511,-17.409391180330196,-12.623205505588219,-0.7718798936160773,12.688337114348311,12.128062853158255,4.407599248559313,10.10449335819905,-15.26702920412675,-12.609302592206017,-5.349868339072032,20.89441709174148,21.662970946243984,-7.218089003121239,-6.887179712348012,-2.5294381290821626,-11.279464742008352
12.59632661886166,-9.207612570592378,-15.061773401430752,-11.119289647610225,-8.449073478311757,12.676272947427574,14.004900368021051,4.69220135727949,9.142187305648022,-23.412888262326447,-3.9704208036404776,-4.5512272402942955,18.19707812985445,17.062928435822858,-7.928557982350755,-4.4071473888447485,-9.809995303141879,-7.728955590232778
8.728648536246432,-9.641259769200282,-13.69161035364051,-2.586433580110029,-10.948497207299205,10.51813563717536,19.59366474324649,2.9252100163740327,10.920956903731497,-20.62476996234865,-3.732426643079263,-3.7544154648494548,23.31531028482738,17.54373258064728,-12.546996390850971,-6.223533285062569,1.560457332960958,-17.854413993327746
4.472234010391083,-10.367704873011974,-14.568433598089218,6.725292904763002,-15.692198221772788,11.389718926941272,16.39417544026564,4.57548464665534,11.339142667081667,-16.86376146204899,-6.817109468314968,-1.3968832925063488,23.260624812284053,15.097345841101667,-16.288200565427754,-5.4025892958050905,4.140044732407397,-23.198517657995275
5.100607423821698,-15.293308066869436,-8.317079964773285,9.882217151044799,-16.03950988778492,14.802665623517465,13.390953853218036,1.4398011392453594,13.81472751197817,-18.086980388729707,-5.7048141414504485,1.3495035615840472,28.189414048721584,12.751053903776807,-21.886611853464647,-5.45994537077544,3.1045790557963677,-24.249544335666787
5.437913504606114,-22.464965168664804,-6.656457126326389,12.45085847152734,-16.5804064534552,14.799783156288651,8.630853602185635,5.041798936253205,9.851446536031624,-22.53658078554043,0.09275813666069865,1.359725794148357,27.84759934013599,14.020429823129216,-25.82657519830281,-4.149424723628822,4.8017673104001375,-26.866945954250916
2.1637925874471717,-21.335690914709964,-7.8287036201611695,11.403856192447297,-21.318916456457913,10.599737333959007,11.586683047678868,9.912670692538395,2.769617941717595,-24.84137827320277,7.841201649812916,-1.3661870731468646,23.993000804007277,12.166982686199722,-26.936220220103145,1.5564113476746488,-0.8271819104547262,-21.382592244030793
-0.13183949298859154,-18.546262369109787,-8.02514447818855,12.405389574588543,-23.028429016695153,9.233811412754196,11.32078203098448,11.071897715448372,-1.571342204686399,-21.973972278715394,8.165385218936194,1.082072498924191,21.8014562386157,6.2140270784309415,-23.555386705037538,4.137965530541747,-4.504825571554054,-20.101342971719866
-0.2770892525970172,-19.467906054337668,-10.175487874614907,12.428099987457959,-17.021435167618336,12.06913804452513,7.93081422702228,7.933559526536811,-1.2183307483807155,-14.42263900191099,2.1395566838815476,-3.990970127525147,24.10501450205045,6.6108320975203725,-23.39905631773349,3.5952863486862796,0.8001531989737067,-25.659940161417886
3.0952508334271913,-23.026437745081914,-10.568714763971109,15.085356032563226,-16.091162073496125,13.832121965218404,6.1043563256541145,8.407958905303854,2.4613890695933627,-13.320346535231625,-0.07986550017511362,-4.4757226770936125,21.137872850231318,8.86503160407563,-22.072649734578604,4.323020403008385,-4.1508589990054645,-20.382314450461244
-5.249428966904981,-15.549824865099946,-9.009483894489374,20.377190753047024,-10.66721503307141,10.90934799900557,5.353124050411628,10.24899348256452,-4.204324405360111,-8.315358452022569,2.4837102907073803,0.6044255933828708,15.536758470177196,8.191285332517158,-16.548794752037356,8.665001448308534,-1.7795057427251955,-14.229535533471878
-5.584268842603386,-6.217946187540403,-3.1539829210122328,24.494986080659253,-6.413807417247492,8.281280702995064,6.849014002664734,14.23795062110856,-13.79354403892215,4.010363715545296,10.220929941668928,9.101038511365186,11.207946166677768,10.058314917873037,-13.663549652852062,15.351726477876024,2.1523712527314203,-6.517978068467821
-5.428919901893416,5.652751077727528,-0.42417274485846157,27.04814553688228,2.430802401418653,8.291624348663081,10.006082792754285,20.081882293905313,-25.427414292676737,11.547279244251861,25.08496384303794,15.642975173397982,8.737344642540297,13.294114945340006,-0.9167388830541761,19.695671131967764,4.617348715923367,13.10410087719487
-5.955281558816283,5.41355429155335,-0.9176830340152886,27.93904648370524,7.175009922275422,11.623900423008969,16.289198942891794,15.28062267484071,-28.461308547960137,13.709462137154436,24.712205715829093,16.51927687755574,7.538966851907595,18.972807398526218,4.601519156408976,19.25543855622532,14.697564836720609,12.800301765902528
-2.2804747490087465,2.3418968832383076,-5.025115999447749,29.511510347026118,11.432085323919903,8.023962417271036,17.983402810477944,12.236729361129015,-23.87187412638867,10.6922496076117,17.501238015036623,20.226202985699317,2.2415936880716565,13.910483674020465,11.485093043982294,22.039009506773365,13.056757073573262,10.051385051994156
0.028999990360873085,1.8089023728756395,-4.7385075687965905,31.96088877619156,12.467545107180744,1.5933506268251456,19.287978499817356,11.438515314024235,-15.760808832420402,8.452786727392798,10.092804432321408,26.27550124348756,-1.6859875193692133,6.21262209287279,13.679191675210255,26.581563299182214,5.7496769363320865,15.111439594578659
-0.3940764559831962,6.255961735311059,-5.429003483952603,29.427753990643886,13.406369623313953,-5.2265771258008265,9.362917628649395,11.616453809623128,-12.038465074101953,10.311460678101955,7.955756310093655,23.631883872074106,-3.7555368307519146,2.226861331820853,7.277495582500155,23.41034385226382,8.792167012715499,11.769307805624383
-2.573138842073634,5.91724805029653,-2.5066594552516843,26.306741341729023,14.346148734345228,-16.24455917040501,-2.123663212987406,11.891648701226488,-16.122941895808175,10.311174327465913,10.308850131268917,22.647108531920832,-6.994495517442758,-3.222773484016404,-0.8839619149762488,18.970805968660706,3.336258215214478,13.404128447757984
-3.0901798189113814,1.6716276591494807,-7.3974000867490455,29.433930066716364,9.232034144210676,-18.667518689448748,-12.242031910173637,9.5297063781141,-18.05323057412863,6.108167835599442,10.902009420190682,21.661031138689737,-12.379494797293813,-3.3980130396256456,-6.703562830816324,10.333260590482903,1.19851338680777,10.738445620840551
-0.7733214597713509,2.1129279256852165,-9.456500271435745,27.578717831162205,7.6344154680704985,-22.749606108626324,-16.988221559042955,5.995515638630817,-10.505083952611685,11.472209302812079,3.3875004323467106,15.107198243237502,-10.535447847130708,-5.232671637724238,-12.32978313553208,1.9900060594625422,11.265764667184811,1.526161727785377
4.963366323157049,2.9441540329253506,-12.297264573442874,18.397356984955916,3.9867321095229182,-21.36189457638595,-20.366200246991973,6.074328015730072,2.2244715102329007,12.731242579745654,-5.105641982261192,4.157540660020731,-9.665663408337139,-5.992447197051195,-14.149290698629926,-1.8596333940643996,10.490764646664141,-2.416105269402557
3.1821988839388626,2.602727372051522,-11.818035748886778,12.632237371918093,2.390539278992259,-22.02411863037129,-25.891647609959975,7.324721830765155,7.439841207460534,5.588355213844984,-8.522617674227435,2.093549132084556,-11.33272616035369,-10.56034114918016,-16.55668662863456,0.24924880763568208,-1.1265059592300144,1.3531204848365164
-2.6988220195433907,-1.7434818359801243,-9.190674238424062,11.162317386069182,0.6972963758041457,-25.224655791986258,-31.61141003818979,9.649060717560946,4.652645593202623,-0.28830784788456754,-11.941608442914,5.106609989856671,-10.067865690330375,-15.030157988591831,-20.430891919462592,-0.9607931383860961,-10.988216526818546,-1.0335268415829457
-1.5467345539361395,-1.012359653927482,-10.860558223654982,7.932856168962174,-1.2883828144073428,-25.885392578666867,-38.30675080536052,13.535654291956012,4.409827340892571,0.2771427730100058,-12.042230023187429,1.8684636468656581,-7.43367100562056,-16.56993692176315,-27.139114781973596,-0.8021491970823151,-10.20752914863737,-5.8650189713426055
8.982225107520351,-1.2587424786967132,-12.335398822869264,-2.5249404032604277,-2.6876497546503497,-26.350203857581334,-41.9737040411166,18.78920752384286,8.566787875812377,9.335549167817515,-13.219059224479949,-11.820134416320748,-6.2622838003047185,-19.96502035386104,-26.32963311629646,0.3345871409949961,-4.25329232984485,-8.844380333182224
12.969821993151724,4.0603811261402125,-8.634618347056838,-13.472648644787428,-2.6216562716557457,-22.615211406595527,-41.73335165246217,16.425228301800182,9.896756456277283,14.484408204821374,-11.175133605883387,-18.283094927634437,-6.163142345552586,-21.406868926123114,-23.08064626470116,0.10566650750100076,-2.5006628158100437,-6.651211935972482
4.263593754909235,8.987831182660768,-8.84035364408735,-15.339770113936043,-2.652998033091836,-16.53600135763071,-38.65993042022519,4.978870035353081,6.15350479673398,11.329151682479035,-11.183948903109027,-17.22740639642644,-4.206585609095665,-17.47757351272463,-23.153956250091845,-8.031944403645847,-3.4847868551202854,-3.8753909514620135
6.88731836086428,5.515614461697432,-8.460315705184453,-14.083386760270834,0.4409582485532808,-9.382213278749166,-40.95669221317715,0.07539019078756493,8.958201465095588,0.06512534744446086,-7.97196458350027,-11.192131871804795,-1.0762908239354196,-14.622655922402608,-25.768295010602813,-8.35531529560869,-12.283877969557008,-4.9114783169990694
9.024381766510867,5.557915983107241,-7.885102619070131,-12.43787482092368,2.7538305444150257,-11.115025423186097,-37.685971886293395,-1.1172671145313622,9.619202880594198,-2.315193663145342,-5.738440600600361,-7.306248307098142,-0.19035376822089844,-16.260247112409747,-25.35716373232338,-5.356669266606596,-13.565680702143045,-6.341415040299916
8.526284826344462,9.017017960612824,-1.8411637068066415,-13.137610250941409,7.312936114360436,-3.667844376618702,-31.386872491491836,-4.946836864477929,5.304327719239675,4.383540497171893,-0.8700174178550659,-6.253321969223833,4.310613329901866,-13.894232752048875,-19.186136595657583,-3.918861600388967,-8.892727377983999,-0.05956992068043121
10.27588431864253,12.279523165558167,1.8589143000187196,-13.838766244817933,12.262704975463409,0.3613931772159309,-26.746967434331523,1.379862574993588,5.583925553148678,13.91126276644411,2.824676499750959,-11.744309279821575,5.688148058918349,-6.64580117015748,-13.505298424850476,1.7199448294647246,0.07479316985603468,1.238590236891353
7.339449108968845,13.880503828259382,9.172285724746942,-11.220938334006343,15.06396275407751,6.24611736155188,-25.524098007451325,5.55797317977059,5.477340623927132,17.674122188375573,7.591792793852843,-11.571955278068916,9.99695031797695,-1.937047458939698,-11.146711716036608,4.430764144980943,2.3015502553211444,9.760322968237812
0.7911814105457147,9.229983645793624,15.313753097664023,-3.623903385175974,11.81032653258434,8.810380521452725,-17.268888105038464,1.4350741186530271,1.468781278613287,9.812684329115806,14.310274930942914,-3.880725769729847,8.15476869587723,1.5014733848173973,-9.375946384039018,4.506597371028128,-1.7241723042844423,13.005478120755047
1.275740640404373,13.562506692298513,19.79505906494844,-0.3251049304842861,11.388577199571806,15.378426211699765,-11.942429462918097,-0.051151344325757186,1.9566982189045738,3.7060892925423516,23.663751053594343,4.981662902237389,7.583508336068244,3.181368337901704,-6.82577934538259,10.834325275471613,1.7673631001576418,13.610855792137162
7.328225123812922,12.619978629093323,20.858395130239042,0.6286538248852307,13.017379250641431,20.481334557253895,-9.154093553573013,-2.1233926871537765,0.007275057703257204,9.999060123449489,20.02700682902011,11.401910697966002,7.404165003048616,7.106501791931598,-5.644664837076913,13.355225609295616,6.721373928365306,13.62731013179063
3.5186750477898334,10.69927483585525,20.359288594120514,-2.715739739022512,15.720081617381405,19.8220791517306,-4.704600218165941,-7.027762400814071,-3.0123985113897724,10.234312906794774,16.388545887518585,8.251038455924476,9.569807521639955,5.659468502960932,-5.539612305912787,14.120134431473401,4.055688760610735,10.61343970147754
-4.879429772705839,13.269162651399357,22.301736388477476,-3.229228239208692,11.976964596609296,20.1389588731994,-4.648732292150986,-5.779733267285135,-3.2937910662482714,10.85728700314997,11.967130580699955,7.931614510462168,7.73259546636344,2.9417935579043353,-7.09654961259878,18.10961849873226,3.0477923547192614,5.545864395496283
-12.104322085975365,11.93100938044616,21.705222641461454,0.06480822758382576,7.256787919254469,15.572424836226928,1.4628851451469327,-2.1879424268655168,-1.6182866901379995,11.086748483599994,8.520624567180397,3.607631802971669,5.017487933679975,-1.3395946741170293,-0.5496829566051709,18.975945170832922,1.060926170409287,6.041930836804045
-8.39026854092106,14.399708507063439,19.644010604244766,-2.3063885026176125,6.637680395246106,10.12636069359571,6.403575673025216,-2.0141822168596577,2.4046217522020896,15.317323070117798,5.365448051491963,0.2596691940520639,6.990886320700492,-2.3995636731128838,1.6008178754361673,14.961294022010732,2.5873476645935956,5.9492446617114405
1.7704329238631562,15.987619567654159,15.336865649772992,-4.385653546003793,5.724970126968263,3.214737169416133,12.126490018142672,-0.08257846830024773,4.57552600170287,24.232641728117514,-0.3304490068147025,0.23154587237155067,7.011973374686296,-1.0194703676394663,0.7221833181863087,14.268932521020123,8.115347884469028,1.0685666576380592
7.4400723067276315,9.956288602066838,12.006519635573088,-12.03240849197385,-3.001062333422042,2.4547760941451697,17.94801944864338,-0.8853736710034132,4.698983592412015,18.7894712317749,-5.930283171805589,-0.18769959990064944,7.131469654580281,-2.863556878061909,1.0137193485522005,11.234727413318337,3.0939268013892995,-0.9827555061786808
12.720230388047922,5.387814598343677,8.188131989913334,-11.086238140856214,-12.899763929812295,3.354140534729797,29.82528103976611,3.585380041792962,6.48586016693928,14.320102152595322,-8.406640026912516,2.8106165429097514,11.45090727485125,-4.025604900515486,4.916893655795562,11.522841656370504,2.7576960049601524,-1.8648591710979563
13.31392111154531,9.313483049419965,8.471641088983732,-12.484766472362791,-11.568674704007972,1.8111256127336777,32.0353729888054,5.419418516736288,10.033683542148147,11.508163265350033,-5.611024805294396,2.683456775461609,14.306043423594609,-1.0876828661629523,5.1074009070478485,9.371480949812652,3.2980086049165074,1.3520323886574976
17.033717029461666,10.795554314940158,8.560129980262921,-12.809929655755079,-6.625171142994269,0.07178073396298412,24.773604528054985,9.304325704832953,16.02592659270246,11.72088670940651,-8.188106696190768,4.020765063066617,12.767051177139214,-1.7648395418213478,0.9993207881755914,15.523007400387563,3.054688813463274,-3.3439380837036494
19.484972026355244,3.77917482016697,1.9105526787448994,-14.014839586579747,-5.393656182299711,-7.332804909848676,14.485379615971956,9.673622473575918,16.845152957692562,4.508917213820657,-16.72380766322167,6.52959743046687,8.201043421440726,-7.424368471166248,-1.2548820381349195,11.910748085283956,-6.370822434419653,-10.093261162988457
22.230161006367688,5.940320911019578,-0.34408687617600564,-17.466661769571232,-7.874201870214884,-17.277659656019612,9.080967641008094,9.945341420164313,18.643666373639302,0.8099437100980164,-19.88980539430906,10.795928582278671,5.197837792300572,-16.69914428657159,-6.635724419076712,12.011478448309393,-16.384636653866448,-14.598951052203047
16.675352795396048,16.985943824753562,1.0149698871017425,-10.46984721375793,-6.937864804068376,-23.805735957917463,1.529003053858418,10.412467101869224,14.68294768126245,5.89750528129666,-13.975081344360074,17.60104767535708,6.39409653216623,-17.38203020533753,-12.701734126437023,4.887537193373696,-12.142769252289819,-13.833572385751447
10.730773228122581,22.462621567098306,4.1322452984686375,-5.915174966144446,-5.319132871939316,-26.23350273720104,-9.147100523624697,10.489064068831556,12.677822132536884,16.939547627535852,-12.065748326284625,13.85884369381537,6.51620442778745,-9.082473671535165,-22.57792933675362,-5.066473483408691,3.4250563682913118,-19.223035173733855
5.861236248512139,20.124148763722758,0.3162187489968602,0.4943380289281567,-5.0688892766840485,-22.80319219889579,-21.87311766326888,10.077485237778337,9.210131546032306,24.072658177801323,-12.306284987240787,5.819437053621127,8.005507320134534,-6.253896232600839,-25.71724386732977,-15.702081121250849,14.107664827594228,-17.876471995115867
6.168313779282111,12.50954842684263,-0.6673186416744328,-0.030462555677495118,-6.089546394284581,-24.061910159074724,-31.180225386463402,12.888735070753293,2.521898340029578,25.44135804363251,-6.591074705605107,-3.39210066923452,6.564966652984211,-9.97060657432579,-27.39316474454698,-17.644142203157333,14.924521510606635,-12.918884706679307
5.49951406268531,16.41587276973381,0.4980448653187499,-0.8488083530880504,-4.963152853914066,-24.345575858106535,-35.017622396676835,7.4968680044857585,-1.6252099816450638,23.096476908919815,4.298644660135903,-4.205288242715669,2.1944841992070376,-12.517714244948444,-26.336109762748276,-20.170143295698313,13.492940898540933,0.7279750762765946
4.831359446152047,21.296005932568793,1.1755649921382716,-1.2770534371352005,-4.814825254911437,-24.923806312626038,-33.9712671840859,7.281004185800605,-2.0594405276028027,23.581099450861544,11.866673623660537,-7.3624556131547445,3.19486949847923,-14.871865079700372,-21.66712708999375,-23.08477189458396,12.742666535186533,8.513150002065164
3.284874331831805,21.778691477402337,2.4394903444068,-0.6315522183971671,-6.230578298000799,-25.40603512765342,-36.83036924527843,14.389623381225723,6.785557153970077,22.988931083927714,8.788705393173805,-11.691689695791798,3.5112442382908604,-17.228440349280426,-21.687091942018274,-18.67307123667485,11.013528740740476,4.8701948029896585
3.7897341481400275,9.074651288519318,1.8483896131786526,9.290986501865232,-9.991741474494402,-30.870527476426872,-37.73547792964881,18.568672118322667,12.604766404067277,17.023045184542518,1.2172010990842455,-6.841251135959452,0.4090933132117627,-22.5172353495146,-24.931105062201922,-12.989827663718007,5.571123233383664,0.5415067649434082
1.4629943177367384,3.496613075177068,5.750026804957801,12.474733942023125,-12.387387506234477,-30.379677225110647,-37.077238875614256,26.849516713281698,14.519125575448832,7.929582636276393,3.4102140578886697,-2.6745541296925426,0.7243602885947062,-23.706953131274755,-26.22327268227938,-3.7889213686931402,1.3960077209551098,-0.566558725761503
-0.6680135347871303,4.751520680942103,8.1872893447023,10.579911815734015,-15.468395028394035,-29.2070611397737,-26.65241756388114,23.997558543210097,13.70038506156405,4.888382790126052,7.457490302080515,-3.195549847157503,-1.9884636966006202,-19.528100614741312,-25.368245471926226,-0.44550540554496765,2.296847529548307,0.9600975414353465
-2.896321652951382,8.737665430123611,9.648474156254892,10.930890252414276,-14.058969121347433,-29.012917605617893,-13.590045713610108,26.028675674886642,11.027321617695991,8.876033746156876,6.718326187571538,-0.20097336556604195,-4.213797681180434,-14.570646285883196,-19.924545850992708,8.075733052393812,3.976716036269389,4.047285908000926
-2.780546213575615,16.13856730424392,15.60242153524258,5.324458146754806,-10.307644564317377,-26.476938238896146,-9.316096715883024,22.298183000024025,13.140518336790871,18.818309987878926,2.559952438413755,-0.23387999040580737,-5.268134744380706,-12.350320607459578,-14.970342091246447,8.786300924041157,11.123199177041464,-0.38711818316932467
-1.1020094291386222,9.766379275651138,15.013812295276542,2.2568773664189545,-7.925479143016545,-26.4820627859126,1.6969911360669059,15.052217034402409,9.883426767432528,17.332142329669672,-0.9159838444250069,-0.36452574446207653,-11.401666996614047,-11.011675417878132,-6.0133438849405785,10.768352541000631,10.845490113189182,2.403249059001709
-5.478075887178241,6.125174148654361,12.2772487724591,4.755575704309211,-4.764065377677085,-20.727434019045653,8.023242011945484,11.51745901462932,-0.7949092580290582,9.788713982443422,3.7125272350862573,4.973590778745932,-15.583133276571807,-10.75007215017078,1.282334050098747,19.10007300652444,8.221806627593795,9.684015656900804
-7.7055567928809605,6.289101319805041,6.709129378116684,8.328334300863514,-2.678962257955006,-16.732746550258938,18.842461912069325,2.3187743799166647,-6.98038912016645,9.274168585382757,1.113241728997928,10.21398701168717,-16.25010516530353,-12.346815701232302,7.6979876941302585,22.64846065620705,6.084238903321825,14.716841965821704
-6.319647896701953,1.957166718771722,3.1923422586570656,11.41266580526595,-2.5491504784469945,-16.841832698841383,28.29516343689464,3.081410127133278,-8.087210012048583,9.44075846352315,-2.6590396333902175,11.548018067900541,-15.551147573463584,-13.165187060048494,13.819597294705098,26.882327725576925,7.06956205588383,11.739965384550606
-5.324378829144406,-2.67143334665737,4.949592512403089,16.05941852407456,-6.523160445685479,-17.44140057256843,34.232851815949736,12.242851129046633,-2.357676104849345,10.093172562996758,-8.678531587353362,13.956233989868862,-15.927797749174776,-15.549008936116728,18.865934383797082,35.1220142282683,5.806616913304424,7.29649817678793
-5.012785485580967,-3.2021873931380664,8.562857431363192,19.04592203809756,-6.788432146883924,-16.96896876547792,32.45621816587883,9.490296351903702,2.78608109332788,8.789970820229783,-11.96466943537291,19.782424112538916,-12.985550163943937,-17.25218720503178,13.461888907882138,34.96496206654676,3.857944250137897,-0.37135573053626997
