Fp1||F7,F7||T7,T7||P7,P7||O1,Fp2||F8,F8||T8,T8||P8,P8||O2,Fp1||F3,F3||C3,C3||P3,P3||O1,Fp2||F4,F4||C4,C4||P4,P4||O2,Fz||Cz,Cz||Pz
-1.5268252809471363,3.502400365973424,3.777606615987346,0.32648662368619485,-1.970977345836186,1.360464280044038,0.2515892616595252,-0.5688533795493569,0.6601779269150576,3.52936682049259,1.7460418838759546,0.1440816935705791,-1.3710697532041927,1.4449056985721525,-0.13922497659173239,-0.8623881524482879,4.244498341006362,-1.2866471986004742
-30.40434625404601,-0.16169003809860394,11.65781044945211,4.389892435706012,-1.6601682653738106,-4.606324184019069,-8.865286739060238,3.774199804673586,-14.301702863490164,0.13479055402977735,-5.096215050756289,4.744793953383173,-2.883382775187192,-2.2048120314201327,-1.6459275698579137,-4.623457007305631,7.552328657241707,-13.300319949640759
-30.76861894373662,-2.067115973386942,13.678818027093547,15.67987888873842,12.712269840867593,-7.644226395895856,-2.259992735485281,2.74577879604401,-17.351244018595132,-0.8185107603619066,3.589186041498123,11.103530736318886,8.493470331447607,1.2738317722818284,-1.1020766949233156,-3.1113959032682263,8.41842159491172,-6.466304978838307
-25.081069768346964,-2.018567946666772,9.938268085498475,15.836772032013112,-0.16297021836179226,-5.800129464705,-0.7336569445117043,-1.8962944284248908,-15.617578834289663,-2.5532878007311552,2.9971517547588653,13.849117282909853,1.215936546193145,-3.0608285175996395,-4.36715563544991,-2.381003449140781,3.9130078916636313,-6.761591222300641
-18.420046353696584,-0.894972126179157,4.342450974706072,8.669204898329875,-8.937836675031981,-0.4412834114612858,-1.258918604294121,-2.8277065700371127,-12.225872700813387,-2.8234579587511064,-1.012880988509587,9.758849041382701,-5.575169562610267,0.2210987792034973,-4.2145102792039655,-3.8971641982087704,3.3135356079008957,-8.81503278201656
-11.859927779162263,-1.5284100002716023,0.7976568075294606,1.2085159247721537,-3.7489802263356715,7.260377516392249,-3.5428332545585683,-2.9782068968836914,-8.934081970007494,-3.0939328698292226,-4.632287857813953,5.278137650665136,0.13195208620586918,5.357775883145304,-3.47623350685053,-5.023137323882501,5.643389922773936,-8.622691837799637
-16.53383900987837,0.08507823739607501,-0.012529948418690484,1.8532519001727574,-8.131998262236436,4.706963808193752,1.1061096762031077,-1.5665503900859838,-14.336204013587441,-4.8296242453142835,-1.318027821488288,5.875817259806716,-5.784261648266433,6.5873651909139905,0.3867577734254979,-5.075336483995944,7.289196894117296,-5.403335677070375
-13.789292776560927,-2.695241794999914,4.8416029948411365,2.497801531655928,-14.274353084786155,4.984571982547313,1.6525577473649598,1.6025617035943274,-6.947651340079485,-1.8781400997531996,-3.2773459510376375,2.958007345949636,-11.702640300783404,9.769300378191916,1.612639029214237,-5.71396075790076,10.008758180040388,-6.383665930505408
-15.833646061772995,5.267571060425183,3.348133499645388,3.4351191930616762,-2.6445776088071664,-8.899284991603595,-3.2707246756646953,2.427487759561336,-1.221883820610186,-1.2708833592567492,-2.2093618595498246,0.9193067309172009,-4.927777463989973,2.0127292435709396,-3.5096014191714593,-5.962449876923211,7.649598411516754,-6.973797294328078
-30.284340292890597,11.180343772268934,7.225970116608043,3.5909509247070464,-5.860437347213972,-5.40119684211634,-4.776909944370633,4.912178785926928,-14.151461455510486,3.3398534968141584,2.081212462843208,0.4433200166857784,-2.256903367835312,1.9702499084308918,-4.823575819924251,-6.016136068446046,5.094566812351797,-4.0487101611702965
-35.75446617440956,6.839816588071695,7.783553561498364,4.625459533450553,-16.304708175974923,4.248157017776747,-13.901348794018318,-0.025551173530400817,-21.02908798736574,-0.7414812501553962,3.1489387758222156,2.1159939704471826,-11.014446481571241,-2.17475414161538,-5.161375506209867,-7.632874996352219,0.3904707884837917,-4.6397894657844105
-31.853526510623034,4.257881459470437,9.317803863412006,1.7533970345617862,-12.883397070249584,-3.8774085069411166,-12.968015719186397,-1.5457088588895753,-21.073612172271794,1.6220167485823196,2.6539713744404962,0.27317989620530386,-17.62607783636449,-2.8050088153087938,-5.597252114014927,-5.246191389581376,1.9358382286145392,-6.793907592450576
-24.636432802304256,6.950206445752121,5.090316312666201,-2.4861539730341793,-16.592996183501565,-3.3126840231270434,-4.223063529049611,-4.1405659702314335,-15.7500093697377,1.2504747150611828,-0.6732675218036732,0.09073815969312193,-18.185583609271774,-1.3854095055459115,-3.689778239329649,-5.008538351766327,4.1641402468700255,-7.971990002729435
-21.427644903297068,-3.4428746793043548,1.5464810388646968,-3.405640517844291,-14.445103221999611,-5.093031734642837,-2.022204104416671,-4.48977474062107,-18.73047094125588,-3.1257029693169303,-3.707757233414637,-1.1657479174625787,-15.52513284192533,-3.775449532127573,-4.321856574286663,-2.427674853345727,-2.0068305844494008,-6.904512275135862
-24.18044458149188,-6.608563534319947,-7.270844880391353,-0.9074233088748502,-11.713312364808191,-3.8473128463750443,-5.193567908563487,-4.741820581202128,-22.202483810882196,-8.674486588831096,-6.742497806625472,-1.347808098610274,-12.672208777206436,-5.580559090767467,-5.442689828667777,-1.8005560043133955,-8.080888326555941,-6.716547767999737
-24.984679368687964,-12.800934881232003,-12.181854674356245,-2.413508923457742,-17.772841892544868,-6.118632165889573,-10.514472098025557,-5.18969155768324,-28.02164948216336,-13.149792579958163,-7.433730099598396,-3.775805685886997,-17.83015353579965,-9.925813928819212,-7.833554726590583,-4.006115522941169,-13.08149285144458,-9.45893415163303
4.577931213054505,-9.519810502347609,-7.4247624795965255,-2.357424362163451,-10.357801248607563,-9.367923935901063,-5.191774504703535,-0.9505152134209944,-3.5703854123211816,-2.586608234570254,-5.19553406422123,-3.371538419815331,-7.463542276609831,-5.385286045251622,-6.904551818725321,-6.114634762054917,-6.168672059346653,-7.612049997791922
-11.763427112678412,-11.706837625947253,-2.960678572628977,0.9209939226533882,-14.761618246934685,-9.884228748988267,-4.8507345239273025,1.3349678781063052,-19.06470756887892,-1.6923855737327473,-4.91082284809159,0.15796660222515005,-8.330684849496496,-8.658476103947525,-4.706507504502336,-6.4659451838073165,-4.2372517957341715,-7.81664561662859
-20.590086953023338,-16.529955238269995,5.6049746161272616,4.687311341260739,-26.68742432054776,-3.7612709138771447,-3.0459614381322395,-1.458303894776826,-18.546829729563513,-6.756173836050824,-4.821782995321482,3.2970303271517154,-16.23238593869652,-5.194407403414828,-5.829348932793808,-7.696818292439752,-2.209066085931694,-10.658690832903552
-34.79298361683058,-14.418718717921987,1.5727028539188026,12.261873376378032,-13.322289624575452,-7.600899331432623,1.6873915878999894,-0.6388052600067449,-25.064075443206946,-13.57873312243441,-5.807359739008781,9.073042200313752,-11.83249890680722,1.0029266767098106,-2.753442968968649,-6.2915874290609475,-1.353701742206248,-8.618562429840049
-36.69617681228159,-6.154404361630621,2.813852006251216,15.148439153169445,-11.483251840925083,-2.848175583716742,0.755425042093663,2.9145308577852114,-14.006789002460536,-12.101358654726326,-7.5746051162711865,8.794462759084013,-11.732923831371743,3.292774341283329,1.3961503636653947,-3.617472398353353,-0.3039862388573722,-4.723672504296227
-20.53796752726177,-0.4285658850622901,2.9806484949279963,13.249333664686453,-6.424060634875132,3.1725385096057854,3.240291286301069,5.002408716110737,-4.223006930159152,-3.984273968565682,-2.3109248408437337,5.781654486974654,-5.874996022452263,9.194756705735644,3.396713828861088,-1.7252966350166994,6.311220681268687,-2.0990902624209546
-12.783707904216342,9.69248094395697,0.31523266115910253,4.80670055641805,-14.16065256442987,-1.2577162488360139,2.598905190695125,3.37868773224319,-4.794989544342008,5.596619288406542,0.12022475827545653,1.1088517550916688,-11.641874008735194,3.181268825335785,0.6114771679428248,-1.5916478748869602,5.210431325923981,0.4270562944761762
-14.410076750176398,3.8959103764499217,-3.2292608730171306,-0.90199163426818,-5.395771487151051,-7.349772669946311,0.19845952925574517,-0.5894359238367866,-22.26589367230364,5.31298240119045,2.550893936150842,-0.2434015459373673,-8.232538115735142,-0.5873406069801228,-0.31884401829176157,-3.9977978106886507,2.448390999122611,0.21798794517344433
-8.13175224417048,0.24838804744716259,-10.094295613272738,-7.978384489300932,-6.4970718409873305,3.3536536948875,1.9960618374989756,-2.9956644597596798,-30.072899933295677,2.9773943109952516,2.6372731020257327,-1.4978117789120227,-3.9479733750626744,2.185846006957787,0.5080823574528777,-2.8889757577270987,-0.21709508011727197,1.2776524496004926
2.047203365706741,-2.5196534535689037,-7.486727402254207,-11.148976232900218,-17.171643686515566,-6.159748090696252,-2.5553374346585436,-2.8634318968906824,-20.11049948075034,-0.33594949373772565,0.9652852662772211,0.37300998530275586,-25.93710676540873,-5.491640401134003,3.580535389423031,-0.9019493316612226,-5.520477224935064,1.0669296361348195
-8.873682960711939,-10.365353568668427,-3.5121682489503527,-12.952883971538402,-25.11467370910305,-7.959890729189679,-4.76421200897108,-4.4896898219920285,-21.480780061776557,-13.025653672774935,1.4412170166685114,-2.63887203187941,-33.57439166711144,-6.236743661984155,-0.9649257065175717,-1.552405233663857,-11.215660453642426,1.5389560434049603
-16.480064360733095,-5.6126791379854675,-1.8816316120200018,-11.143995192872563,6.197772314709443,-6.246082360268179,-13.224454567752222,-5.335347598740098,-11.234251487898462,-12.337503107627617,-4.8218085884975,-6.724807119482546,-10.258083553417306,-0.5377733183902027,-4.827401461933187,-2.9848538783328435,-6.462668071365326,-2.97043485063924
-23.018153583641894,3.730416822699552,-1.4232436797067325,-10.702869781770307,-1.2628992066775009,-8.049704493130065,-13.092099093546933,-3.740233828132404,-7.632987430062755,-5.107577239902432,-6.983804537868998,-11.689481014481892,-10.676586182574159,-2.1644908146300716,-7.8115842426689674,-5.492275381637516,-3.468749442852789,-6.504137814943265
-13.839370837522859,7.702825967238389,-5.555044144903241,-8.016186099202415,4.359513898625535,-12.19888734614518,-15.304821878103983,1.4675346217684782,-3.059757909576833,-0.6133982862480887,-3.3846109320680418,-12.650007986395511,-1.4310196605852212,-7.698894549839589,-8.257299705052297,-4.289446788403211,-2.7222244723200975,-6.327752360145986
-11.893362738563457,7.476421788667223,-6.952720985653174,-10.505946733970328,-13.752012855035616,-16.545182594138403,-19.96028895153956,4.8191149959788655,-9.917167132575507,-3.4449161835610895,-0.7626330471576133,-7.750892306125476,-19.24075943913433,-16.555056583965737,-9.484917635772828,-0.15763574588838392,-8.91069521675296,-1.7576898511721377
-17.180203380388544,6.273889777554048,-12.3546764434838,-10.750177351995365,-7.256953154390205,-12.006441198987218,-19.148230530536672,-2.6700136545366555,-19.709060343077898,-12.039642463637747,-3.707805385116243,1.4453407936167224,-17.91375749353575,-14.57262227303214,-7.49047668653393,-1.1047820853769044,-16.17472709680507,-1.5831617529713857
-16.51616830688324,-0.9829930403836253,-16.292094910284902,-10.311415278449017,-1.3510576041650122,-12.74305509413523,-15.700727112651451,-7.718407067831299,-16.517291935260083,-20.04985859294603,-12.024832676399303,4.4893116687016255,-11.903420304755915,-13.470537265693121,-11.942098497801565,-0.19719081056177235,-18.850200285324522,-7.3667060629288095
-11.659163634429923,-8.532441043491161,-10.073455007111901,-7.334176490540938,6.993011505227429,-15.044048570610213,-13.524093194023322,-10.03309995274739,-6.982651651596517,-19.955952337100964,-14.580752238373007,3.9201200515921264,-7.557559782390416,-9.147192447023967,-12.58572508685183,-2.3177528959180322,-15.667592508687234,-11.295717024823677
-10.519529404924441,-8.952487592931021,-8.933381331207592,-3.7716283803826895,-14.744824106453395,-6.995194538178997,-14.669145060488132,-7.758602700416602,-2.2381826356249395,-15.078319779799143,-13.719368998558284,-1.141155295369245,-18.353000710161428,-11.17306144646328,-9.12838732817048,-5.513316920774009,-11.314502867336756,-11.514710328642195
-23.5467031693456,-3.219732272884557,-7.403057203596752,1.5481098003365634,-12.462225789752676,-17.11256910474591,-14.05768281891616,-4.8988896282534,-10.096562202081802,-10.2998799949092,-10.71025220457475,-1.5146884438318156,-17.23860354494454,-12.02851248285252,-10.456943032541812,-8.807308281362609,-7.646455204975156,-12.613611810784214
-32.478743115196735,-9.30322202970677,-0.9902429733777338,4.132770331885131,-2.175110883377574,-13.364448265761325,-13.545204979319493,-1.6492827012716083,-21.573333681141087,-9.331658311531188,-8.580809881444381,0.8463640878120331,-4.0191051022359225,-10.639323729206149,-8.075171631847125,-8.00044636647534,-8.276811879940826,-8.928283891898186
-26.475691893435148,1.8013686106921787,0.05098262733093284,6.03315454718104,-8.981565123819536,-10.399506572410562,-6.97927421882363,1.2089501651112236,-16.258082111384375,-2.4079110486805124,-1.3739374122674417,1.4497444641915467,-9.066112674028416,-8.275058220606288,-2.7643372417901415,-5.045887613553326,-3.92811273182424,-1.9236033255352893
-15.889317958308343,13.003911180931278,2.2636725516056577,6.077358821324665,-7.685936639127473,-4.213788977235097,-0.12169637809179967,1.6249909265274036,-7.627625652032361,1.7797934646503197,5.050883814025278,6.252572968999005,-9.332447504731942,-4.740411984873101,2.0575376607830984,1.6188907608582355,-2.2176858132637185,5.177714503362031
-11.26670142315984,16.003473220011188,3.499341264236933,-1.203460565821352,-3.1711560830793566,-11.311464630973514,0.8750928646124567,-0.4011654236573685,-5.643101100634992,1.8642182898710091,4.4435419993249905,6.367993306793716,-14.29095611096963,-4.8206248899565995,3.460719914160011,1.6421678136306772,-3.633843306733211,6.125564949026602
-21.49473698856185,13.925077247470172,3.660316159735035,-3.9927268539213876,0.7540824677333209,-4.739007095003948,-3.8912456890910683,-0.4749250891044552,-14.79680908415481,-1.5687178259039012,2.4681701938054452,5.995286281061885,-5.777342355676696,-4.316423804059332,1.1522359459807205,0.590434808250472,-5.051560161581092,2.9707519528597377
-21.86605291196167,7.061670695426731,3.8208179041908954,3.373699570213401,-8.117479282190832,-6.957705218644426,0.5209263618366915,-0.7447623640576428,-10.869671902240402,-1.0970534401410736,-0.28930048793399976,4.646161088270377,-10.549868373036256,-2.5442133347406877,-0.4733156926845252,-1.731623102634273,-1.0996824488562948,-5.165652080265189
-23.318348765051002,6.44855178284195,7.203537840418576,2.3408392528819846,1.0739652023609008,-9.959631712482839,2.783316406396901,-2.284915900488119,-8.217416481412677,1.2283729847323226,-0.606179394971051,0.2698030028274009,0.49343325089070333,-4.191572893951837,-2.197196089898957,-2.49193027129335,2.8505932065991697,-8.029591709102355
-15.40227519570703,14.136506005018493,2.7731376492101933,0.4283298509831357,-3.703360767603548,-1.8305484746532157,-4.33074200843963,-0.31015943936793233,0.9725399905556067,5.4075364205275385,-2.2911326124195233,-2.1532454890753763,0.008358312669825452,-0.5669705946575538,-5.581927674949343,-4.034270733168223,3.1859103697219506,-7.96485931671074
-25.559682199791087,9.812695734347741,3.615741229456013,-7.246723476589703,-2.429656966742497,-2.6879549719639453,-12.032044894102375,0.29661750897399486,-13.964366564430309,-0.8644625242440771,1.6871834855120307,-6.2363231093322025,-0.28619915983213673,-3.9752877837462504,-6.4282256375255065,-6.1633267427724725,1.4687737056857708,-6.4363269788811746
-20.293986112713817,15.743057414542163,-2.9641705062808246,-11.016211784436866,-5.359021197928512,-4.81689354614579,-12.019675917567884,0.9026213089955979,-13.672097825081757,0.6743503197242662,1.1723508171297228,-6.705914300580063,-3.027030771219515,-5.822648527145054,-7.275188674558568,-5.1681013797654405,-2.6914660444300726,-0.5142678280002562
-9.663951574628317,14.25151114755702,-5.833627633940446,-6.97383228376388,3.1337512815170196,-8.607997797378633,-4.684256587738702,-0.24998885200083398,-3.912488700640475,0.9417827837073496,-1.687172883430026,-3.5620215443319165,-0.7921787319605826,-3.472298153345452,-4.021188601254244,-2.122826469083154,-0.31031420138522847,-0.5504070284399489
-18.47465821047362,11.685780491487424,-1.3793057949809342,1.0717568594946196,-1.5611223208366933,3.907754979995879,-3.7955177985336634,0.25680694931891646,-6.658556257892339,-6.116966452080556,-0.8366197167541753,6.515715772334193,1.2424684210783958,-1.1235229207617783,-0.9631623437640062,-0.34786134665062374,-2.8137428838171323,-0.5876265258103901
-25.729701768943592,10.58493653083658,6.199500590521583,10.386133140417924,-13.779523959411186,-0.47326719563562136,2.756111688681653,1.5440885802970685,-3.64832593103098,-7.708753952190478,0.501293464504899,12.296654911627819,-7.8607823742276945,-1.3154266325924722,-0.05426053637254569,-0.722121342917899,-2.58446398594639,-4.7275548963897425
-31.331430666244476,5.480115063252038,11.824577880678111,9.738651183850122,-3.149925946165757,0.5149012235253121,4.716581596929416,0.6821238770040874,-2.5967793476013625,-10.37666791683864,-1.6774115509532015,10.362772277006922,4.418072315842638,2.5927153462353285,-3.149975558012898,-1.0971313528145257,-1.6733047725252224,-5.743522269022856
-29.713356181845427,5.06282362631049,13.054471863895069,5.281743883771174,-8.637794712813205,8.141812770748135,-4.945451970136146,-0.18061632398149596,-0.4765440493136417,-9.042524555493253,-1.2203074363147985,4.425059233330115,3.117539613917467,-1.1180266381341548,-4.097864594864806,-3.5236986171436437,-3.2053267411786623,-5.784001247347858
-25.465390919211544,4.6454587956930835,12.623589010733948,-1.7150423446028287,5.3042604039235375,-5.424985481818004,-7.18671535589991,-3.8762054180974115,-2.1705218724565007,-5.268865491998923,-0.7641629125329872,-1.707835180322569,4.741757811266774,-7.564765566971353,-4.655761297255832,-3.7048767989736238,-6.301623130253929,-5.337282287691651
-16.536717546409037,10.868714459246084,3.500562242932885,-9.591529592163205,0.19906440004160864,-8.642039372068071,-2.300166535556806,-9.135091198095823,-1.9169183359958524,0.7489769258562635,-3.1410616152516635,-7.449967410926373,-3.3071392559791573,-9.520827817601248,-4.7260017806162535,-2.3242638515244476,-8.423104677850695,-1.7666076116339084
-13.474363653865286,4.982271545062258,-2.693346673589482,-18.836009693633038,8.175989738100778,-7.271150400031074,-9.13373321570287,-13.41817031665863,-9.481517013715985,-3.9774926963437034,-2.4915477415869773,-14.070891024303906,-4.0367203921576,-7.572158146794314,-5.675787805841469,-4.3623978495401206,-10.741675326055578,-1.4197309989752513
-10.809483949242697,10.130980998863865,-12.305899666331438,-22.80775890905689,-13.734391951816074,-1.214654601657629,-9.6207164571429,-12.330841845193005,-8.653139990693628,-4.018366464714786,-6.725906281864267,-16.39474878842015,-20.396568029494617,-8.261822638275031,-3.9894336868726823,-4.252780501208626,-12.86671425137509,-1.9528668392754431
-2.780256479426388,6.783260847052776,-11.567363686815833,-14.182448769729481,-0.10141616282166055,-9.222830820241981,-3.468125175616458,-7.826257446915475,-8.611619192778349,-1.5221288068750791,-3.1486384911012255,-8.464421598090567,-8.538368265447996,-8.074139331733466,-0.1552206609687241,-3.850901347486338,-7.376242416700282,-3.85430348556814
1.6288253254629836,5.388454885006678,-1.8449548860545404,-5.4602715073937755,1.222604361886603,-7.857813137229013,-1.906580797354124,-4.689642735546655,-5.645962270034019,3.6088647712453366,0.6229449916922123,1.1262063241909062,-0.10323825569301626,-11.501360162090355,1.041629872297972,-2.668463762798299,-3.8407266473356,-3.9013346828962936
-6.957359612135733,3.407427042624851,-3.744463687225026,2.6751677471545516,4.9839696069630754,-7.275997238869554,-0.9320964868910337,-4.48351739263905,-11.279781776322302,2.3900898238223007,-1.9542307680049702,6.224694210996108,3.736921823786501,-9.265994923963433,-0.6918470557061633,-1.486721355593489,-4.018013639693802,-6.000268742122713
-11.058050584273648,-6.777161636336863,-4.375075099182871,7.977740558695075,-2.098790576474652,-3.0827745480998416,-5.5251967284244525,-2.2273320106056644,-12.915225914733746,-6.350357996491588,-3.067552343909072,8.100589494107995,-10.104030458002262,-4.39542790613088,0.5038215801334491,1.0615429203555538,-7.615136635170627,-0.9712763503090187
4.366072794193499,-0.16496527160409968,-5.592292334833223,7.517714841178137,-1.666037258502337,-5.434538807770696,3.845687514208654,0.028106018933685917,-0.20056839834982654,-3.080941245834844,1.3846001223876003,8.023439550802674,-10.27796374230465,0.47358830717315215,3.945040561027289,2.6325523409344873,-5.745246837846089,6.693388611301774
1.4238388662005477,-3.3189251166946505,-7.786751938851832,5.592031801434441,-0.2608539830735612,-3.002979992631956,0.22704168850838435,5.9937964534550074,-1.6518610275228056,-7.5285331401031055,0.5622128021399533,4.528374977645176,-6.160022297809718,-0.22543034944222562,6.213798270213477,3.1286585432578313,-2.2170007729421304,4.786511195227815
6.385214290532915,-6.277987924538593,-16.91558106952619,0.05222231321921322,3.2886384261292854,-4.186650672283123,1.4902546547992186,1.9000040362205808,0.7975889047681513,-8.560160141542076,-6.023007128140101,-2.9705540253285148,3.0310565744131743,2.8826670008974897,-2.3580119711834273,-1.0634651592992652,-0.05779215701754925,-0.9300989762889822
3.5273404422702974,-15.389943334090383,-15.693364151125103,-1.9726969257080977,3.611251793143996,-8.985536876511466,-1.642135824460607,0.5398992887695453,-5.9383425654834525,-9.691508870815914,-9.97249759254985,-3.9263149397345556,4.50211166850919,-2.9952750978068883,-5.949826377631796,-2.033531812166496,-0.7324899872099477,-6.940759940109245
-5.001271950259884,-9.658414000783274,-13.006959379646702,1.56808880163564,-5.4454627542619605,-6.950245578699141,-0.08793620818647252,-0.7232697584683532,-19.906485016077973,-4.28186012054511,-5.426797216317196,3.516585823955001,-4.871899992688125,-1.0621161832378387,-5.440554457413535,-1.8323436663133492,-1.9949682691742243,-6.409426223946419
-2.1104750771818885,-5.392279542606566,-6.219611027482932,6.182326125429492,-2.103839195714377,-3.842567781232245,-0.19487529283965266,2.114471695981077,-15.71580801595822,-4.538437687009982,0.7780496944985398,11.936156486696143,-4.192215377056167,0.08827240466393249,-1.5137899870180522,1.5909223855687156,-2.67333529522885,-0.11735576175569928
4.4848156492078814,-1.0290533378566247,-8.515116683503738,3.666768049358226,-9.313455293438311,-2.494561477138163,0.6738307941348074,4.5608754941649705,-9.284502868335228,-3.527547468188777,1.6106838842900952,9.808780129507502,-11.623165592769782,-0.4230185917406173,3.584349647257987,1.8885240549398858,-3.3535378369567224,2.950943644874119
-0.7429316886475767,-0.3774246562773498,-5.14715967463087,0.07619813286336363,-1.1950175515532475,-2.6132361999496636,-1.6810753363995472,4.565137405561792,-7.057957772220265,-1.737482794881383,-0.8780835463301147,3.4822062268066647,-6.265983797636492,1.9939356063397433,1.1623364225635555,2.185520086357255,-2.7660247720941555,3.772053971260272
5.448876465345922,0.4688785401948632,-3.6353875030172618,-8.788662286386453,8.384068464853247,-0.09694887387368212,-7.064252247585325,0.6624000562040453,6.1984596583823866,1.1247257266299577,-5.906991603078151,-7.922488565730287,3.8714076426941677,0.7960779677651928,-0.1859374868741943,-2.596280724021587,-0.5201638209760127,2.0530068321233763
2.1615376959104147,-0.443336261830253,-7.104848795529604,-17.263659626209996,9.755681178380883,-5.004428031175321,-8.346658461475153,-6.170750016288977,1.9687164627953884,4.570786357389354,-10.253335280747844,-18.93647452702996,5.214597025034891,-2.9423442645782765,-5.245690133387291,-6.792717957662035,0.35665719673609697,-5.526555862189055
-2.011010385604738,-1.2586098336216813,-13.309415911087676,-21.540136879447992,9.951173723303079,-8.058168976928373,-10.801785035694106,-8.512315024158674,-4.317235061289274,4.108440785973611,-11.670986476629484,-26.239392257751003,2.255856398567998,-4.0454582414019375,-7.473841560701626,-8.157651909976076,2.1105692208595457,-11.837613787481306
3.575984813560588,0.8550943514019083,-13.166918848699357,-18.98132943775432,4.575944772822158,5.976455778976886,-3.8825686936970736,-9.29201724067365,-2.9912471283193547,4.522916772399283,-7.913816598884644,-21.335022166620952,2.8078227801960267,3.639186785844961,-2.6710974436583306,-6.398097504987303,3.9603140251552205,-8.090964839307315
3.0043729411019697,10.38999431837105,-7.458618823106847,-12.321647925481141,-2.7566711844178835,10.145930599728086,2.449928811600236,-6.752007026957254,-2.451851762224525,5.325924853099313,-1.9115568054517302,-7.348415774472928,-6.899225604012646,6.634836272748233,3.4984049000550783,-0.14683436886985746,0.5347203614939176,0.7328519030341418
7.797830931001986,11.232524859227835,-3.6065028543118083,-5.467395385402885,-7.066130183391791,6.794062469304116,6.437896265225723,-1.6735356119635574,-1.722435857544399,7.88467335762588,2.429484808495232,1.364735242003086,-8.993900965841608,4.355557825173197,5.7611592026206395,3.3694768771905137,-0.5489028284069253,5.454014686633496
3.5030790826693377,5.726433608959031,-5.126247848899799,-0.4693773496364866,6.979833301252668,6.663224569404525,4.95631442238383,0.08394365263640147,-8.517923145817981,6.632671783794004,1.2030005970922275,4.316138258088044,5.410674124522423,4.809300610589602,4.800781411780829,3.662559798753451,0.22116170416745984,8.025684262207948
17.952641353980983,0.7077242278519087,-6.256044910516965,2.379440402397993,7.837770625086662,6.726049235898806,4.548280610152789,-2.3584774857444266,-0.08402044126883368,5.280915649626102,1.9286389445338354,7.658226920886536,5.747651791785856,4.773374088203299,2.8634113627005346,3.369185742673661,2.3566319338664536,7.471289279386594
1.243482667913458,-5.874453973815626,-2.8942662548807148,4.641589564867267,-1.2696102787356187,7.568505673097073,3.0653535481926806,-5.680424114964626,-11.675130248773604,-2.5183460638892803,1.9696436788620808,9.340184637948397,-5.834471205744865,4.052478048605558,1.316269253408045,4.149548731290947,1.755890163692472,4.181466828883286
-2.092395283715142,-10.69977595072631,-3.146501165358661,6.90302482186002,-2.7639125967781135,8.79998613833981,2.070086314201939,-6.659178738018937,-5.790636761091328,-10.12438424860854,0.15412513324682653,6.725248298575622,-8.046279379448128,2.5489703900202754,1.2336020654044395,5.71068804173896,-3.143579358537443,5.285238127498907
-5.922317417041551,-12.20575592783896,-0.07904651581269295,5.062129702853406,0.13216290702637767,11.983038118863774,2.441428006403502,-4.611124790922221,-10.06763497932512,-11.189442336193032,-2.1507047273968958,10.26279188513737,-6.356576399657221,5.7317005474569775,2.2247906624456535,8.345589431097558,-4.529148642585018,5.50909142964816
9.675971376345789,-7.365041952018116,-2.5787526768703106,7.126847868232176,-7.718327763381646,16.04345051974909,0.9567028081450779,-2.173008579189076,0.29898836838074416,-7.178382297387872,0.42633378099551233,13.312084763762645,-10.921735848889943,5.983381108469763,3.8015581334114064,8.24561359230445,-6.111802357650891,8.564027097776776
-1.0012732903349821,-2.5254250254424067,-2.442365112096833,8.409617096845809,-6.881487537730697,6.723217705511846,-0.9191934295931694,0.9481560746123865,-6.917771916256447,-7.075711431626878,1.7328073649411087,14.701229651974662,-12.073608472910257,-1.5788583011601371,3.620130451161897,9.903029135681797,-7.598557162900285,8.785902437507927
-6.01989057371199,0.5552177543290732,-5.627001245845318,6.85963447199982,-0.872987229514596,1.4054422028412672,9.020986670833363,2.3109388855013604,-14.33478731886499,-2.678174123762493,3.1359290658435803,9.644992783615702,-1.7065672988123506,-1.2321045879341002,6.954037247907802,7.849015168473706,-0.5908366351324794,8.323193944738488
-3.4266440915030376,3.0487416305974357,-1.5856200835718743,3.9417760283850845,-9.126708255287705,3.01988133636155,3.8237367735950514,8.165448684608249,-9.158841439656756,2.7915302817004797,4.049757451976959,4.295807189946492,-6.285823831560787,-0.20301330782491744,7.0649060299567825,5.306289648680508,2.8018108559325796,9.519693559109244
4.6300791559942525,3.0019543167805587,-4.673904055275536,4.05065029843776,-6.837574719549882,2.3867329749660504,4.97378970536076,8.159978705638261,-0.4720500497848299,3.571601818508909,0.5679882423368277,3.341239704935039,-7.451685352490862,4.633480706088146,8.737977534857723,2.7631537779354596,4.044263440618643,7.59017813970954
-0.30694879010819953,1.7820268633830054,-0.9267906651289657,-5.802211648021556,-14.025412433030452,8.39287721876845,1.7288240729214102,6.493825672348342,-0.579232778445272,2.0058335585569775,-2.621801410109267,-4.058723609819916,-12.430785592313574,3.999909876355897,9.6294773498792,1.3915128970623993,1.183378949295447,7.905829457657697
-2.8077184748788078,0.46315729101551933,1.9407645314117303,-14.190843434977952,-9.205506643090551,4.9248129826935365,1.2178849277452914,4.631869778406708,-1.6677132748567125,3.2700936292673752,-1.8086114652762761,-14.388408976506334,-5.1095569558935345,3.951072065928721,5.247160645680747,-2.5196147099838617,-0.8002846485258219,5.876739717356827
-0.33304061510144045,6.076665977924736,15.74535423971118,-13.009641590262904,1.079086972378791,5.849965680400881,1.1948742413940856,3.2577294760726785,7.004918471275381,11.75898881385115,4.179457148729534,-14.464026421527583,5.820503553319998,2.4361729307350024,3.305999965040789,-0.18102007887129334,0.43707220700378624,8.045983418108467
-8.215090905433083,13.251340533064589,8.06461508888306,-10.852475956298711,-1.1406418884219613,1.8908765756353607,3.124688058866533,1.5901572824741814,-0.6358941630259789,10.089450407662278,5.088348169841579,-12.293515654205741,3.0740191588706267,1.213070203284679,1.0715895005725993,0.10640116580530823,3.4305977695321506,4.647792368349195
-4.48078689935098,15.053444971515322,11.711554302046515,-5.766180205157948,-14.009181325286168,1.5437958884664988,15.991868339217493,1.6799803340167196,7.34399118473705,9.589785857446662,5.7032975666356265,-6.119042439710734,-2.2159832143578484,0.2817824921373786,5.575297294664134,1.5653666639510797,6.520125356984707,4.959657610691547
-3.0950931733769025,16.365830135042135,5.689764443470903,0.39376034482976063,-0.8072052741938487,6.6642477496162495,17.823453316797373,3.62487110862795,3.014523459361442,7.232615349329119,8.368098040994258,0.7390249003362317,5.087491986850086,10.970626448464401,8.223252795491103,3.023995670023502,9.803328140052374,8.883927037700659
6.879750718442265,15.918909530474611,3.2807050023584425,3.5257325531101795,15.125103057200704,12.271714710039573,9.49839229523419,2.346641990785139,11.9620944343388,5.752366268665986,6.051399466768258,5.8392376346671035,15.80466426588473,10.91599855056994,9.796728325551033,2.7244609112365,8.202019578851115,10.170510814008933
0.931746776974693,5.21642421512518,3.2148323038624307,7.926689112704784,-3.322180005899522,9.186396715495468,12.306102123865891,-3.1312694251816353,4.889447103930696,-2.077622969156598,3.440780749584496,11.03708752436265,0.14997116439248082,7.637563923778023,4.631585173314855,2.6199291467787043,-4.436221503444708,8.42878341238253
0.741009252105064,1.6414167339179337,6.273415314603092,12.424749431008136,7.133179595541311,7.662384212408858,8.082272475397113,-1.2852346926068028,8.554868428452082,-1.803995119100167,2.3917465373426303,11.937970884993371,12.811796615664296,2.2095769997897468,1.9076609391285069,4.663567036143136,-6.236044370037767,6.002535929963543
-12.735624142619757,-9.259493270069619,13.237723082783777,14.871455657507884,-4.388481451362312,0.6683478497673458,6.690364267345364,2.025296995767623,-2.041955829945225,-6.805848361413329,2.6113313935843854,12.350534125429713,4.375374702072767,-1.3639754372243893,-0.8164780453039646,2.8006064419602303,-4.326446621576551,1.5245652416190834
-7.466316561148299,-6.782899286314427,15.513881669083215,9.797986903470594,3.129107841654628,-9.647213947369792,-0.1705014358436383,5.335474849484424,6.302674239613598,-4.9736101902700405,3.318281373175112,6.415307302625297,5.700603004485982,-5.036228609123128,-1.7829828162311983,-0.23452427121793662,3.1480867078263826,-2.6613377453659623
7.662176702038829,-0.8899247562558066,8.707300011885422,7.067787593797741,4.3926137196225135,-3.2644361085404894,-0.7813670389331018,5.227293362116022,14.154937590820982,2.4231820059817153,2.266476614938212,3.7027433397778036,3.0177929334978773,-1.0922013268132744,1.6449150561426147,2.0035972714273615,5.542880309422333,0.7691625357630141
5.305788380635171,-2.6159277778023915,0.14231590617769152,3.751138294856652,7.702965827276374,-3.914120948431743,-0.9040106385180708,-0.4477022729872872,3.252906989458369,-1.7055625644266632,-2.1065983806654835,7.142568759553095,1.5028585300239143,-7.793871146261544,1.8499210906653893,6.878223492902755,-1.3413298242667089,-1.6606970796880023
2.4570660819279695,-7.273369769039954,-11.841244915394245,3.9496769526561604,15.989918875102292,-1.1468615396931021,-7.472103428683404,-3.3885885978003807,-6.6764830002060656,-6.617478261056684,-4.234443907268776,4.820533518733356,8.089554172152228,-10.004268369991355,-2.2421908020363555,8.139270308793789,-10.961455844300223,-1.0640573406972402
-13.091106101466462,-11.639577701176922,-10.836874772159689,6.589181367105321,-6.0986058049104415,9.04133838480694,-7.594795580119444,-2.716430342623618,-15.242529521622306,-8.113267547067382,-8.316334101352478,2.693753962396057,-6.031097666033359,-6.160849060773302,-0.5726645341303991,5.396117918085097,-11.403233763820442,-0.6636188438951296
0.6542024236939632,-6.144124856969959,-8.661152869377274,2.9781256813756847,-7.194612897515295,3.700938997838004,-1.1744014560951488,-2.6304946702245315,2.7505370725335503,-1.0170550060768915,-8.199822478739428,-4.706609208943415,-12.635953309758435,1.1973057436121914,3.3428299032473863,0.7972476368982196,-1.3970928522471593,-0.06874586575168751
5.606575996995037,-7.486516008056784,0.057103856894147764,-2.2935632345182775,-2.337369656798462,-4.179550977605316,4.855407045169268,2.045094356923457,6.774828066688393,2.4639575032437993,-3.396611323410912,-9.958573635155954,-10.455404430086604,10.507692507985775,1.9846549725731482,-1.6533622827852512,6.8497698879901225,1.7948014385340259
10.06702612038103,-9.026055397095485,2.231765577923798,-5.319562628869474,12.281801220381587,5.810365606904946,1.7054607064186431,0.37268559216769925,4.740694558772368,3.696994461790588,1.4057370058379401,-11.89025235400999,3.2450243085687998,15.227263040920848,4.532646498461823,-2.8346207220786765,13.142059883752701,3.9504503163376343
12.766106294764537,-4.610335306083021,6.652036237149753,-8.443645061107286,1.9944281179123218,9.353941087451428,5.09868281708656,0.06725628560033547,0.7498364397351889,5.514146903004294,7.476782442677914,-7.376603620642497,-7.76562919845831,17.21153488383273,8.350053546592681,-1.281650923914703,11.913307232287066,9.327937571410068
7.160852523269771,-0.09884936882506623,9.89990222879285,-2.6812851820279926,17.777878202073563,13.775535773350338,6.050588131846878,0.34756031690645006,-6.760194714783584,7.32948539637893,12.27743319024013,1.4338963294249414,7.392377992335247,17.53476372980389,11.190755941267371,1.8336647607743288,11.952730196168678,13.727984934059563
5.751560544706084,3.4341387554699114,11.487082106978374,0.9322056755255681,-8.337608183218768,13.020399741227209,8.565170553477715,0.6276670592524554,-3.5312928590342993,8.361765463286845,9.752918932806365,7.021595545671874,-3.7230994298436664,10.728136750129831,7.488270141495228,-0.6176782910372944,7.0102554104617685,10.119239634286442
1.7999516400307236,10.38319958483392,8.972139567706053,6.010177238867329,-0.37428107502941277,-0.6263983483968976,11.958852158051515,1.8841697328539584,6.042020208742381,8.22037401024314,6.739291171748166,6.163782640755216,5.861373466187958,4.701951580694901,2.1254906035231933,0.15352681708050842,6.6563637579559645,1.8220693293474852
-4.889184028414344,11.95910946966514,11.046620618243432,7.474440394654096,1.6282148476717113,-2.0667889799926558,6.954173581138057,3.3358222320025175,7.408818192977106,7.686591243938716,4.896741294343585,5.598835722939864,6.457906351325722,3.948485019225912,-0.3076616297687411,-0.247308059953937,6.105848659854098,1.1413537526936826
-3.866362387456874,4.255532540959859,5.893945765065476,3.7624846988246095,7.142709788546739,-12.199498071292497,2.340357069238771,1.3693039755190783,2.912964273731496,5.979173942946449,-0.2669768312076279,1.4204392319737877,2.656476402432477,-0.22378098509885191,-3.131542653664888,-0.6482800016453989,2.4290009342722954,1.0457400863035802
-3.627700771288472,-6.282145817821782,3.768184709452602,0.343157015016382,0.8369685775459494,-8.758530222174082,-8.035009691845971,0.37922905451653566,-1.8789725577165823,0.07075127401942105,-3.283019734997074,-0.7072638458958849,-4.566274902320181,-6.838248134198718,-4.685963996560334,0.5131447511348367,-4.667129285752732,-1.4921571324969127
5.787996495244853,-4.321685047254942,2.130243114845815,-3.6624488900236662,10.934108757836123,-3.853414381249536,-7.0817971862076075,2.41642577045512,-1.4980807077428784,0.8990096538652574,1.610429379567443,-1.0772526528264565,7.934601583184389,-5.738490476207123,-4.482630241976703,4.701842095848609,-6.10034848483525,1.7309167733285322
5.142260851899963,-7.050871204548016,2.6403093893726224,-3.078459353671849,-0.7500148200237982,-5.980342929643311,-6.909540525669055,1.6214454403815814,-0.9248264786839497,0.06540336154196824,0.7412971267062741,-2.2286343264600696,-0.6617641589393131,-7.862153843114257,-4.8653206046997575,1.3707857718157117,-3.628471975873884,-2.1758553511938112
1.5642135849327472,-4.11800675217903,-9.350270744000058,-2.1041437641024903,1.136731612431706,-10.451713146801355,-7.225242154680288,-2.6893004309911914,-0.7450776112241364,-3.6995978836341967,-4.13256683319776,-5.4309653472409805,1.77409033499832,-9.10759199485525,-9.64268056345459,-2.253341896710778,0.01410785164939976,-11.063998627442052
-11.58676542671567,-9.09753958607249,-13.626338414997795,4.241056061043032,-8.015370035810378,-11.701002468934199,-17.208705646855744,-7.8790372202245695,-4.474433838494657,-12.642101353237976,-8.616553752950292,-4.336498422007948,-11.515989205946667,-15.431905831837524,-13.150554961076478,-4.705665372943536,-6.110251241721541,-14.093499238315024
-18.392358436167743,-10.36821972200423,-16.437982413961265,5.605433094371498,5.680949066087857,-10.509441261878273,-16.742412877053752,-7.404680750700712,-12.796420261908054,-15.922076729794572,-10.855156027426018,-0.019474458580701515,-1.5664973987963338,-12.577043950534714,-11.873259078230934,-2.958785395960418,-13.017012189358663,-10.2877750416838
-0.49280435411329115,-9.6879066281643,-6.261582911168424,1.1100810885363297,4.725150279019884,-6.388709094817508,-3.8731857383252644,-8.004599564073803,2.5121292212711133,-7.289407073197543,-10.16475883406736,-0.390176118863105,0.37215649104821047,-9.039208305468955,-5.224840553671939,0.35054824992027744,-10.74506021036302,-3.9437617727179046
12.22873406072722,-1.4901282951608203,-2.823997011094243,-3.1902066724383547,5.523768084911661,6.8136635592956125,4.601867405154923,-5.674810854321382,13.228206990992895,-0.806784986366766,-4.20156567285918,-3.4954542496799115,4.749418719185384,3.287215063342378,1.1305574496699375,2.09729696286919,-3.200679316956372,-1.0185766497804156
6.881540554410421,-2.474376479353838,6.8632610316272835,-8.662625178126733,-10.868764407053463,13.765443556775049,9.757004255792905,-3.6380046630024374,4.31260037714674,5.381308970782206,-1.754762330399138,-5.331347088918943,-4.645827065300365,5.8472771432274815,4.360866074305013,3.4533625903077807,1.8035371715719375,-1.21924141609998
4.852765321974949,2.105650390741924,6.686670295830877,-12.4750866196752,5.060062300841217,0.5992640068524502,8.174226075374534,-3.9449782385001897,4.86739523750358,2.973989657271402,-0.7735253562306265,-5.897860149617541,4.218226836228524,0.20352346840616575,4.270775283504472,1.1960485564584915,2.8027493336906977,-4.057462222513865
5.556566627952138,7.660022358578077,10.123005008422938,-8.084509095753516,2.918890089393259,2.1789704905116603,5.8106767697815656,-3.7636419231868805,4.540950353870262,5.35039062889252,4.796936118712167,0.5668077977795247,0.1888306432122273,-0.6555447595823093,5.254888659525332,2.356720883375771,4.093924194146215,-0.6463794506165295
9.871968381604143,9.501152763071886,10.726860285857835,-0.9597127816894663,0.8720949559243492,3.4653035130813885,6.377371798791956,-2.5080341970183593,11.34127955067028,5.186204910910195,6.851040707053219,5.761743480266112,-1.6946539787592727,-0.8315307993054225,6.824922606147348,3.9079982427298665,-0.37769140967579373,4.717071721283914
13.01384505016469,11.828310348106758,12.013920610013791,1.4773272962677102,6.146386535272892,4.0676647299183895,8.409465959835346,-1.6430062115640096,18.43242000547152,7.266685678527898,7.732585270891957,4.901712349717568,9.11487891996957,0.6521646355047427,5.8558343688225705,1.357633089200653,-0.8462964808825336,5.00153951746081
-1.0335695841179533,2.7272378050248207,7.63643857537824,2.9376184295993784,-8.602365019391248,7.404107785664549,5.949857558437493,1.2729003434446948,8.431372774516227,2.5096873748109436,1.2891433265422432,0.03752175007165438,2.1482847314272915,3.9908789611228634,2.0546554805552293,-2.1693185049132686,1.0279546282551015,0.3046873232956834
1.910036070052263,0.45992061822509056,6.8719050628707485,1.370361172915913,1.157807709623666,-0.7833645208660662,10.815153150876439,3.3099679113996237,9.268330113838683,5.759211140434426,0.5092054966226374,-4.924523826774575,9.339715067812154,6.450217434349311,1.4761704061898377,-2.76653865727934,5.8310358260580015,-3.416356931571978
3.9733974358538813,0.9247228918503465,4.251492056387617,1.8537710317348064,8.961695576375554,-1.2561444076293813,-1.8973514607341295,3.7846067839382256,11.177596325539307,7.151850221696205,-1.1502855910893501,-6.175777540261762,6.177147984127758,5.979389531568005,0.3117316796590768,-2.87546270336464,6.336302037662292,-3.8178015612699694
3.008145373939652,2.852084328069732,4.267460899507603,-5.768544039550848,1.625542606117362,-2.9987108800951634,-4.5504967474763935,4.161697345296019,6.93257666179253,4.246186474489191,1.9748302359631946,-8.794446810220428,-0.6986191444553631,1.0158934631323158,0.7098138074595332,-2.7890558022531544,2.446123437260289,-1.8762178977210606
-5.28256031312394,-5.183959188397353,-0.5998292327287231,-3.33223154573899,-2.3932988633507972,-15.679147014834067,-17.847705022027444,9.519456159441745,2.7834441894041606,-6.473433028370486,-3.0062574538772537,-7.70233398708646,-2.791291690227683,-14.104397617562704,-4.751567412081773,-4.753438020855373,-6.327760550809834,-6.478454071968971
3.418157213183834,-15.859084486019025,-11.131635223127708,2.033706202857457,-8.66128006506191,-13.9064070719236,-20.499570815270566,9.213203408524645,6.738210944063899,-13.971657574620421,-7.0113675440950765,-7.294042118394267,-3.2258459372019157,-17.21315459254836,-6.306634089339364,-7.108419924597269,-12.075044647080949,-8.639991612990984
7.528036051960633,-7.5909371300333826,-5.452618365279306,4.2745019174348196,-3.21330370493032,-6.762627478413471,-12.017787792176014,7.637551023808602,15.671906204531261,-6.627189651959938,-6.231836874208793,-4.053897204219588,3.5642808429407857,-7.236120193302483,-4.931959921968981,-5.752368679334553,-4.7369530933308965,-6.7983001400578615
8.316724571445777,-5.575218987604014,-7.879551157442275,4.8550341691239165,-0.6979898545912365,0.5763650395430007,-0.2149580233756423,5.183143347388433,7.709272735818987,-3.385604052818836,-4.769279229615856,0.16259914219989358,7.325097591034156,5.767980487183192,-6.487005786166134,-1.7595117830393088,3.0886943437982186,-7.105810580781632
8.8117094904612,-3.9524693173256686,-8.646654905554971,4.94720816733398,11.18957818243436,-4.09661344773353,0.8462205453722316,0.09215418533515185,6.483559776341708,-2.000745602827529,-5.846388736224918,2.523367997686668,9.716857634907885,5.783300213441053,-5.795908094686784,-1.6729102882052647,5.6401198851472945,-7.707019007885135
-5.928547677025421,-10.144678774269174,-4.726535099966523,2.7931967661240384,9.206900176215106,-1.8359276895930183,-6.783423429669884,-4.412698170204647,-6.853100849411508,-7.2578160645372884,-4.6779248386689565,0.7822769675426517,4.587195156993146,5.212394126853479,-7.643892928588468,-5.980845468460641,2.1360906660318504,-9.871469015759649
4.1357212157878305,-9.991476163970926,0.16981858428656377,-2.290592199099339,14.252774918472884,-13.735615827660547,-3.5723263441452415,-5.401668915681435,5.883542450089855,-4.3128110842485405,-3.314688810967261,-6.232571117807402,6.38952755160589,1.3208676342010208,-9.101225075310488,-7.066006279459574,-0.7826377706273753,-8.423293189244138
1.1134065744945902,-17.457918158222363,-1.6725509902971178,-2.1985544488376343,-6.583413140559174,-19.092203171729714,-7.587155100505044,-5.804477931128706,0.35695035541641573,-10.939411172026976,-5.077032579287014,-4.556123626901919,-17.786731733414783,-8.625673879588126,-6.359249843058342,-6.295593887809024,-10.830997535148539,-2.8741954835902317
1.2157856866378027,-15.84452971854954,2.832497568958071,-1.2276188774656955,4.121130550734154,-13.218084375708356,-2.6167103832099943,-3.570300632393461,-1.1668381909813874,-9.754510052233814,-2.8359299169788588,0.7334128198382053,-5.63587261477569,-10.759809236005626,1.5586128076946388,-0.44689579743749713,-11.211827825521073,0.330420746480903
20.068188199711464,-13.354558224861847,3.9191943397591027,1.5988034040401964,11.795609805482929,12.090024574087527,-4.774505451864661,-0.5546223323639616,1.8005391705772928,-1.1487098271667706,4.092234498795782,7.487563876506556,11.591699916968762,-3.2260193319991846,6.546772887669173,3.644053122757625,-1.7297835361704053,3.729664382157513
21.049051544209167,2.7075066570296755,-3.393001458954094,3.546306967254883,11.947812872282743,11.518966099325759,1.1740804098174353,-0.46842570760508306,7.013027525305471,5.209902405010052,4.7698048464223834,6.917128932866056,9.969911339186234,6.944360535130784,2.5504527461037423,4.707709053455622,5.0173165958413914,0.19452816599820633
11.385137188466459,-3.303404778536347,-2.013981465306244,7.739950591786773,9.851302487843164,4.990953018695418,-0.005547634266889756,0.5946099848562223,4.216636697960896,2.973603016886017,1.3452624014553565,5.272199420173051,9.03038142655338,9.204316364904269,-2.324753160585343,-0.4786267736879392,4.6349041077538145,-3.8295691531866147
-5.505446588130105,-3.750145295915853,1.2202162174047406,6.367125953624567,-3.9666768946029896,-5.833799290244937,10.632223978396617,4.685308103453123,-1.3150433916466104,-1.3145096263747162,3.584392075636506,-2.623088770566863,3.206690652455777,4.823420644615053,0.02674940295255568,-2.539804802964258,3.7637352616663176,-3.9480212506162635
1.8231785540678365,-7.714876619062591,2.5009432962769167,2.5528914092987467,-7.435430274338195,-14.998134937265165,5.059635132624516,8.092685005916662,0.2814903585746622,0.06055600470284106,3.7722431886187504,-4.952152911250134,-7.012800726235801,1.3213411512029962,-2.5045977654573535,-1.0851877325138999,-0.525892137928681,1.5970193254923246
8.956662201694032,-3.771633709650018,4.464962190816567,-3.3121116293942663,-10.320685446984513,-10.29480273446776,-5.29734796191774,8.96125376992828,4.904683590032837,-1.8856818527666994,7.572975339952237,-4.254098023686649,-7.467648956512143,-5.3058677630926905,-3.1804092576384426,-0.9976563961395737,-6.1831354759633115,3.6257332336556676
6.812917716603447,-5.690147152456102,5.940383315674504,2.444210682525677,-1.8800442838626186,-2.661435996719281,-2.1767179965583776,11.39264926975001,-4.34018265108762,1.5383462637232048,8.248215001335906,4.060985948441603,-5.286797776718583,-1.2884431372640117,7.179143593731844,4.070548312920049,-4.125794795961575,12.685164734008872
11.79852717810931,0.49465199841119745,3.4115311805879918,4.68491861908837,2.0659865262639343,1.9448765979472187,6.4135995104441585,9.72273200619642,-0.4018449091332359,6.13338836745497,6.579234494919021,8.078851023021778,-0.3725183143790607,2.1429964097178065,10.605037444982544,7.77167910059063,2.032823679702865,11.587559972419733
18.640052864997408,-6.897241133136298,0.8823761430931273,4.38659934325831,18.119270525116963,-7.315840767781681,0.25846077516856736,9.810975451175132,3.633628405598455,4.08685632460039,2.9566750333850655,6.33462745469435,9.521388407193891,-2.8241469488153497,7.976192539044359,6.199431986316806,9.753648896683885,1.6024780588952043
9.563864799623328,-5.111558334723156,-2.818971809965223,-0.989838864566559,-0.7911748080214882,-10.619033663168654,6.604382954220522,0.42674818339200815,2.004498708495742,0.08635296645773982,-1.8381913661733074,0.3908354816539228,0.07821584798548065,-5.935789234809698,0.9527907729413674,0.5257052803664102,0.9700291320663308,-5.258170408980516
2.3437488697792253,-14.949382174909852,-9.352691535613877,-6.0732110133296855,-2.1254365397177093,-10.210797108514313,-8.728836128390064,-7.492274577492704,-3.9219582554269756,-13.290078435589088,-4.289676125018028,-6.529823037974452,-7.217262625926827,-11.781823101024543,-6.851831425938763,-2.7064272011631183,-16.700701679765714,-9.580323243361695
-4.192112192666556,-14.340045985786976,-12.37102734252267,-8.71503777979302,-10.395558188004726,-9.216145990406304,-2.381153781518285,-10.821037193893503,-10.629997174251411,-14.948334282055525,-5.1790313983252805,-8.860860446071484,-16.271286323400158,-10.791769019242341,-2.449194853562905,-3.3016449575555975,-19.722997973438982,-3.8443257603355976
3.5307815141779795,-14.709486658866055,-14.120104815300332,-7.9387329685239365,-16.226346918534578,5.646404915714655,10.3151700416758,-10.438451745155588,-9.916301941338254,-8.794692251870472,-4.01795889298341,-10.508589842254864,-15.169540909716552,-4.332814506756074,7.422315905436772,1.3768158047981487,-9.952326644452281,2.5746877403407296
19.164749291971948,-11.370112664343676,-5.322436348275608,0.4549947904828074,-2.722963376645153,10.157768360055043,20.961574099234422,-6.83279972262535,-0.6089144886254916,0.28799275961752135,1.9279675274374797,1.3201492714710743,-3.7166411472812757,6.61848371715788,12.60629507687051,6.0554417133339555,3.4315148612995072,8.407175445631143
20.44389716760933,-4.614875933774864,0.7405275414464316,10.216058417219937,-2.6006996648367906,8.517259182477027,25.358779119280793,-3.6174106777367028,7.331140109534677,0.3855087377358828,4.943795617525144,14.12516272776997,-2.225327531969379,8.878351239218325,11.833190950613067,9.171713301384443,4.998633671267364,6.035842482981912
7.954240709655384,-11.436200692196598,3.678157877748917,11.578691925536617,-1.5038166034352691,-1.4235612062961511,24.092734225721813,-4.405614542514551,1.6967079698358205,-10.943555383994365,2.685748644986151,18.335988589981238,0.4374514346438899,5.181225097449103,3.9311092653793,7.20995607606566,-3.2001276795576503,1.613135383563169
0.739106706034196,-17.28305984739901,-2.1736924482316273,11.08597166556014,3.9857586274076415,-6.6761820223491295,13.940735794621691,-5.486411125651099,-7.160427624284148,-15.53482736501863,-1.8187746167807615,16.882355682111392,2.611582934793047,-0.664222734080379,1.4002390871578656,2.4163019862205957,-9.641125960157915,-0.17336538381910324
3.193159243763221,-13.952178183904959,-8.904744839653738,8.054300945842254,-2.2454486447133926,-20.229051734342665,6.231082593452176,-0.3167261665714781,-7.228302631783798,-10.556200046943353,-0.07354215553580068,6.248582000373461,-7.2264779895577,-6.704817562524918,-3.4743830180227135,0.8455346179918202,-9.441444386675773,-2.253383044943054
4.867084217598704,-11.111645721969206,-7.530485740280231,-2.789830985260232,-10.919900121017623,-17.179416040259643,-4.700374286376098,4.462719273180943,-5.245239962552431,-3.136655665769638,-0.9653999193159148,-7.217582682209711,-9.252142126620717,-6.9834175803016105,-7.2747383974371544,-4.826673070051352,-5.433127784848433,-3.650331186724716
6.346890456983682,-9.15206598446493,-9.086238513611617,-9.043884188408052,-18.326548156259186,-8.855542662094656,-1.568215712342683,8.558956828509436,-1.8947835023922757,0.18077006101440096,-3.0294736235374016,-16.19181116452288,-5.516154499402035,1.4297288324858362,-8.242990267542341,-7.861933767667297,4.337008125569156,-5.243120428334357
13.980391749616938,-5.631966874402603,-3.806228075211457,-9.14532815327647,-18.117585588752576,-2.191101480180841,0.49060683227876645,10.214151610482467,6.045831582586821,5.646205427823631,-0.6016063864217328,-15.693561977200106,-4.221698233245789,4.27661077481663,-3.0587782876806147,-6.600062880001542,9.419614442823901,-3.3207475753708016
3.353212021749666,-3.9693395781082694,1.4735046222024386,-2.2152368237345654,-12.441428120029574,-4.998682535647546,14.073939176128166,12.84632852745617,0.998270568657214,6.228326098969143,0.45874510170679905,-9.043201527162278,-2.5366323226212733,2.5338245371099926,7.594290252627595,1.8886745808513312,4.541202283984331,4.5582399677841225
9.71985270056546,-3.2852336235235686,8.1201685707847,-0.26550611589567286,-15.165419746328455,-4.192120016566776,22.775277441473893,11.572604139206954,9.62315408456488,4.563924016372363,5.034475322870275,-4.932271891815628,-2.3163878259712716,-1.9431142130655852,12.87620280459842,6.373641052283986,2.4949644594710323,8.628077297751206
5.638544315773007,-2.114751039630743,5.000781784230339,-0.5617134607532415,-9.980662249322714,1.6934802373348363,10.676405569640936,9.32271377529217,9.654573997138108,1.3366362988358982,-0.25351889710401543,-2.774829799190311,2.3962228386144058,-3.978326941123847,9.661908005151655,3.6321334303623813,-0.4300645588925991,3.7129133112198223
14.351882798154136,-0.7508321549333736,1.2951719707529477,-0.3694365679218816,-0.3051204205495619,-6.385113657328642,-0.3473479401289241,7.561526219709969,16.620166633739483,3.4801953904834173,-0.658911829741641,-4.914664148369807,10.917660318834233,-5.427292713584434,-1.7556248886222852,-3.210798514865946,4.164709201007383,-5.499671331850392
2.9492617667273695,-1.0489401530288092,-1.0435061989500585,-0.8605630343546653,-14.166509084499554,-0.8883921922414717,-8.245176703991628,7.558594332902061,4.933658730895354,3.1820149085795073,-1.1622415187614985,-6.957179740260646,3.2281520760736897,-4.629812276722529,-7.801974243250566,-6.537849203873177,4.951015905202266,-10.708759580634789
-0.6391547840350924,-8.575531392015924,0.5238481073558361,-1.6444568999010083,-5.2750023562016555,5.3905067684615,-6.181045927918978,4.3333751654278645,1.5486402104374042,-1.218053988369308,-1.470528311143721,-9.195352879462458,8.820399149883782,-0.7069486370050642,-4.277861757704565,-5.567755105348205,2.807802918489186,-8.30100590851675
-5.690803581154041,-5.8498346432914055,-3.280251125785532,-0.5726431705096331,-9.959222064366948,-1.7087637373644422,6.333325227572418,0.6202868018581862,-7.597550888454485,-2.4933058977901927,-0.02124220948107891,-5.281433524957567,-9.220161419129987,0.28653529497809394,5.008055902126902,-0.7888035502194548,-1.0930095124302692,0.8446791632106896
2.1500500367738056,-0.39145927743578746,6.880427644481185,1.8665938718624053,-14.937657625143046,10.724479297946269,14.258636085046579,-3.5806698286880874,3.1791226720041825,1.9930506670622363,3.5762536177265725,1.7571853189450604,-15.541365623387842,4.405436015710015,13.610362814206372,3.9903547226885494,-0.20832579097816628,8.232081375634095
-1.4333260854370309,0.3776439129353566,5.126581962879008,7.5287554125396206,-11.61636958306806,17.982851382353648,18.473796785402424,-4.851473317589495,0.18679107409352103,-3.677163583425897,5.415655144722148,9.674372567582752,-0.5726936187976814,2.762915394106174,10.689044480857056,7.109539010987328,-4.20623556018138,7.122825779302851
-6.968087733206428,-9.59726670446922,5.032636065179976,14.656005952023797,2.15317104044179,7.37086920351855,18.490508294956907,-5.926540303981405,2.2734476304424263,-15.695264601653692,2.1766044887262987,14.368500062067774,16.252024818785667,3.757554901325133,-0.14256832055590074,2.22099683543425,-4.004542751680344,-0.529923722198971
11.229792455814103,-7.171267702195848,4.352459949094714,16.021676240524236,0.3940644080402729,23.32282653526113,2.39451518528157,-4.364427612783334,19.986176664245036,-10.23273180379756,-0.28142896402071704,14.960645046864226,27.510861119058507,5.631530616261001,-8.435103262985978,-2.9603099564816806,2.838221959165014,-9.647955565734145
-2.5045574042216288,-9.629739353019609,1.03523874751558,9.574956951966698,-6.639567411953667,19.256002411905143,0.7526782070912992,-5.04802298750525,6.742283427131061,-11.801626189678476,-2.251413765591092,5.786655470432407,20.70368336061964,4.771521122599813,-11.55180748376722,-5.60230677986362,0.5015300572918634,-14.66476951730562
-9.303318454551082,-8.964706558722566,2.8935889937247565,3.0308124718445093,-9.670179469309124,11.38160181523558,3.9945261526873086,-2.8014673416253055,0.042386328618151836,-8.194698706508152,-4.416949743284625,0.22563857352215955,8.623713424400984,4.790877327879192,-6.269981925762379,-4.240127669479445,0.8996507735381846,-12.845939842060343
-8.482849937746854,-7.0316253439877645,2.7008348782525466,-3.2201236232080666,-2.0569855457900457,1.5551409366621622,8.409051482962301,-1.7263873032133894,-2.359597569457791,-4.978409273423494,-3.067038737933292,-5.628718445824612,2.6969639099007803,9.302949680382536,-3.429642352331509,-2.3894516672821395,1.5911650649490277,-7.121189775150259
-4.535373028430175,7.302528290388054,5.925806441217866,-5.662170364813381,-3.6244467815616956,14.093415184815637,10.773534642397198,1.106947390246187,0.024664399446849394,8.101335797068247,2.48192714005118,-7.577135998153938,0.579705115344896,10.397474821096369,8.297502248492421,3.0747682510109864,6.18943328413423,5.34156406541063
12.402577195810405,15.287510399386846,9.736425436029553,0.19693033063542043,10.432563112242018,11.105238463080653,8.646517303216681,1.010962872392231,11.199182420364828,20.595188956498294,7.444722001215043,-1.6156500161669394,4.811093384440902,4.754102696370499,12.407286716060291,9.222798954105896,5.709966793443057,15.264845222200002
14.693891740998664,22.782828043705518,13.058452558160958,6.349245529274686,4.469029429726042,17.981639228123697,9.059341263049681,5.8959333578137425,12.023081131900021,23.518668401178804,12.700268546741494,8.642399792367529,8.555141027639657,1.4550157604088816,15.247456852235292,12.148329638473967,6.793514846422342,16.886855808634653
-3.9114949992065675,16.897702621787882,16.4778297009126,7.228285527185726,-0.0302844369127091,17.339554681530473,0.6836925325401868,6.875001361446403,-5.609191331476907,17.360092734498128,14.342259868047362,10.59916157965809,9.565773144406432,0.5002261376803923,7.833493031360112,6.968471825200664,6.80334083471632,11.965443843549949
-8.256768513699623,12.866785092962242,20.38518289078626,5.275495044639251,-8.92478225117708,9.764945121472856,6.859754259762158,6.6825800807190365,-1.2672911311965684,12.568869641820623,11.980067354584028,6.989048649526107,8.331330544103455,4.526504433705961,2.177289538302571,-0.6526273052931773,8.766856512880656,4.016296574144971
-2.541185266277079,13.912824740500874,14.526444093473708,4.983131084767177,4.153186519340757,1.5079186736969667,-0.14728908119412587,3.951457235911131,5.810245197561154,8.461423998686941,7.9574787710222,8.652066685239461,11.883221596480006,5.721242551302058,-2.6977389912025957,-5.441451808784329,9.363719946321538,-0.026877947802408708
-2.4876167533373774,8.023963710799887,16.772974053244,5.374616951207611,13.129065969579298,6.533543825859062,-0.02464541770635975,3.369200048538819,8.592097484617044,6.404992771433966,5.0089124948012165,7.677935211106011,15.72924029297559,7.502471996873811,0.43507204989923176,-0.6596199134388354,7.129085669594943,1.5937679979245298
-2.7248642953880076,13.852874845593384,17.45665042174261,8.696081130057072,14.975526851401858,10.388485569777561,5.665143014264773,3.9592264298553226,10.593980339404084,13.235645906840217,5.8687865588254065,7.582329296978524,11.470869966764406,11.823357658698935,8.645982105003942,3.0481721348697715,10.55919710633563,8.682927221990024
-0.8114631099025509,11.086792932667404,15.796204841423638,9.674005885457703,4.028480884969729,18.05329806473172,6.960967842169357,4.744953915111509,8.593223144306961,13.42583037964107,6.4354768468900065,7.2910101788503985,5.6512271312932025,9.894712491370466,12.071550889938104,6.170210194416647,10.083615139677182,12.060780333742382
16.53405904897726,15.058028144236783,11.596315049008421,11.628754394809272,11.440807744548891,12.340227335295296,3.47217877582803,6.01935029248183,17.824467010023977,14.10458838582113,12.470790664091517,10.417310577136437,8.133790398114556,10.798715375861953,7.489064284446214,6.850994089765995,11.75713845238755,11.043731225264281
-7.427426943934789,11.117964638525509,11.107069302583438,11.337621041309752,5.8644333092130285,17.66371558134417,-2.6527736483304487,7.977725249181994,-7.904366656423143,7.459327380885474,15.869135891252808,10.711131422809201,12.863825666251643,4.574285348488965,5.933838076565365,5.48115140013602,10.110951762597919,7.877915884212438
0.35208474027020387,10.008999196103963,6.5158409744186185,6.749792901073695,5.073126615527146,1.5037413801887292,-5.066156449802136,3.3933998702096915,-0.4281438980763408,7.357472626318867,10.087443936899053,6.609945146764456,4.1184814898362925,1.768466360704085,-0.6020714094100539,-0.38076502497505516,7.684173848149477,0.7078451066060325
4.618164427768277,4.9927932792367695,6.123530278593089,1.0879748473230473,6.820819814975195,1.263224132131767,-11.97124027513258,1.836826203167902,6.365929649435665,7.548954407046926,3.621937888808325,-0.714359112331036,5.726290108741567,3.8461320223781152,-7.138128530491976,-4.484663725454967,8.578446696270266,-5.192955382462022
-0.976928160775552,0.46399087529671124,3.387060673904329,-9.554143426954552,6.61531685651348,4.930265618333278,-20.535971446416994,-1.8678627950294402,-0.2176231809883582,4.225146002503137,-0.40233516015581117,-10.28520769985019,2.648002119516918,2.1157504669133744,-10.256321587942907,-5.365682765057968,6.44603346746507,-8.359611818351812
10.129723437844758,5.602465372352687,0.16192104553278597,-14.04358037606655,19.88660047682115,5.571169007347764,-15.81873678612919,-3.130760470922505,13.708461354386653,3.9291406385742915,-3.4502421741340186,-12.336830339126266,17.63791248836263,6.733733179998808,-11.519183714548213,-6.34418972666823,10.466777375346847,-9.671036288519213
0.7305296946649129,3.122842700631979,-5.798025002938333,-13.94286077976486,13.333440863091568,9.240715816392955,-12.272903145030831,-3.123767143888963,1.1708370357158078,-2.8118383478113396,-3.470971724917492,-10.775540350357174,14.074409118378409,4.61394900802371,-5.750864041518389,-5.760007694292501,5.015455013973866,-6.881093279235048
7.349493207528431,-1.994286351418732,-3.9457500751146366,-14.720819110938574,12.73754074899945,3.927004558195838,-10.777411713198374,-3.9953608268199865,3.674069088158401,-2.91163015077041,-4.0778615470146615,-9.995939720281617,8.852320457318342,-4.048281020909442,-1.1546221524295461,-1.7576445167771508,-1.5093535663306898,-2.626534362908087
11.041018501810756,-1.7409409570603094,-3.55874815784024,-13.154751040356444,5.3057952613310215,-10.076992063636371,-8.207236529028963,-2.2298708846679824,5.104654943162056,0.5047406729373654,-1.1692881210551445,-11.853529148456179,-2.8135443997267338,-9.682493292685038,-2.9063277270208854,0.19406120345446054,-3.345827909033069,-0.32537310979068856
9.266008778248931,0.56256193614587,0.6364899374377275,-9.635288679739432,-4.860111692824329,-12.556123410624778,-15.109435422654812,6.37197722984711,5.75559127384246,5.288826471876847,-1.4836372832477362,-8.731008490345022,-8.911246083712559,-15.70670408886103,-2.9003978150867784,1.3646546914265398,-4.400264432653505,0.02239773915828136
2.903386481614371,7.65068533896201,1.7062558056649468,-0.6467545795601963,6.361340248868345,6.060066440399518,-3.358601282298948,4.1341240150641,4.16203434026744,9.194521361856488,1.5221576052282315,-3.265140260638443,11.360350370288126,-1.710441544927396,1.8905480280993876,1.6564725685947992,0.21023646434039556,4.764538476846532
-1.1131477066860054,11.515540904585155,10.68586517966962,2.3848944331801083,4.399369343822956,12.95857316469357,3.412070594110151,5.31459074779044,2.2771602289238286,11.733558292353756,6.2855705837291005,3.176863705773929,7.31691314267257,7.598889819488008,8.146137130164231,3.022663758113156,6.481719446896787,7.553303103172334
5.712629095352464,14.696276267509933,12.047728455534832,4.635517327174721,0.28935820524703626,23.47165731024352,6.86273948366862,5.811743323260014,10.550367353075684,11.53875006762225,8.021370114983075,6.981663609921845,6.790932496551089,12.12363556606304,13.034285521456473,4.486644738368413,10.214913123926657,9.46293379416892
10.587550789210269,9.770949604394534,8.721568926189757,6.886374743712062,-0.30448655735763275,22.755336719122642,13.73176704407951,1.2309741932360665,10.133731033228553,6.461647093446473,7.70613119426136,11.664934742600298,2.751084491309168,14.012268851834612,14.406513426077693,6.243724629877938,6.722256836355727,12.153619093758106
14.097560057366845,7.774932006658458,4.516029587623821,7.672599286777858,6.8171752609201075,10.223658306000855,18.062008623124647,-0.3221336623641453,11.67196307621573,2.361733998369857,6.12111321836728,13.906310645503353,2.131101068112258,11.995241508022627,12.555784596725124,8.098581354839308,4.402326545922403,11.42608306759211
12.238684191277754,0.7979930019068475,6.364801195258118,10.802841521734328,6.029162308360373,6.873028587637157,15.263527855053317,1.347725589781104,8.719669746189041,0.8992121270475355,4.340548705221556,16.24488933174733,2.684885654308424,11.541389023481255,8.165693786479633,7.121475876579544,6.184864219767191,10.014749266272915
0.32334471243359886,0.8520811259026553,-1.5526788378790606,9.148085121657843,1.9214451281936111,3.1329804715280183,9.8285581505658,4.287387319392866,0.3002897559922193,-0.2696849673226893,-0.46763951174476404,9.207866845217868,3.2405758962201494,9.037376653825243,1.4315471049015622,5.460871414749324,3.475997954276479,4.79457677448497
2.472994912060889,0.7105701250256931,-4.9783889897417435,1.048147221779904,-0.4277173539802517,10.429460074863936,-7.813381694034453,5.078820628718503,1.0624992628970933,3.7379486059439273,-4.592460067172587,-0.9546645325169014,-2.3542362106061194,7.0223068973256915,0.0682967291019021,2.5308142397613462,3.6977247079707656,1.4297212413864742
13.902395448733895,7.404863822828138,-3.9123376153269813,-9.493006087375864,6.892007929478316,-2.585677558598084,-4.0680517508064105,3.624357634947561,13.838386912402115,8.039244304278348,-5.592472252664804,-8.383243395130476,5.627341581846722,4.031314537055952,-4.322632188574844,-1.4733876752922348,2.5531121168835664,-1.056388049944478
5.216554935564599,7.555898370173926,-9.292199744998042,-13.49086392693386,-6.100249452639769,-1.3416036551104344,-9.600005086895111,0.6075922429096541,1.4203669620043495,1.598895550875807,-4.346598537506329,-8.683274341541988,-3.4791932546178046,-4.427855939202601,-5.10052239424877,-3.4266943636531173,-3.668826232231405,-4.616899241918222
15.771529535387916,5.265345419236239,-20.629694556465893,-14.65642158079277,-4.540620806871043,2.5403986394317366,-10.151234263366575,-0.9440959956073858,4.336413913622036,-1.0320767055860571,-4.077547145697119,-13.476031244948928,-0.6694648678729589,-5.073751669547809,-7.148269828329218,-0.2040660606507103,-2.760865583769661,-5.052522859337292
10.508175941387499,8.15055528484765,-11.654897539628386,-14.063915281228597,-0.14797981596843268,-6.564921970342713,-6.40536601555052,-3.8627920358260237,-1.9255535432615787,4.2479699132180935,1.2694590412359572,-10.651957005790647,-6.060941519983276,-5.5236764925975095,-7.340835576466681,1.9443937513716034,0.5894293166119997,-2.1679367710918447
7.786133245220108,5.762196376389313,-3.950176528771898,-7.221089994552238,4.538627077646532,-6.000983418999908,-5.00314913714874,-6.878955827925221,-1.7402863748912125,4.352915161729619,3.198193910170865,-3.433759598701076,-3.0517819851330277,-6.851865948442086,-6.459490146319226,3.0186767734781337,-1.5282121421875603,-1.1389945399891563
7.703041703818534,-3.6575240001611515,1.5078841646074999,-7.604714787175898,6.687179875300392,-9.342225976496525,-9.948573326659446,-5.695657440977612,-1.1625546834595077,1.7242191335741888,0.5367619268078498,-3.149739295811355,-3.8491791632857595,-12.47634161218486,-7.043343165694457,5.0695870723423555,-6.086394100536195,-2.844609137635108
0.004819721600473059,-7.901341669529986,-8.073885946712835,-11.406138630673794,6.395390443583054,-16.002718307686017,-23.87841978953669,-4.0239016818206155,-7.614337730520425,-0.41539648229970805,-8.179705575931333,-11.167106736543174,-11.87113010798744,-18.295479322205882,-10.850242121635823,3.507202216378709,-7.811593084780819,-9.921532822327528
3.1487599387900413,-10.1919153631808,-16.874939082079567,-17.941758088236778,-14.696342578516614,-10.357237783766454,-13.882052171902563,-6.2582975689035205,-6.544624016459952,-2.35888895005332,-12.990121562009943,-19.96621806616306,-15.203367419363442,-15.031794927719023,-14.071543077928233,-0.887224678069269,-6.410830762514207,-16.51029441447431
3.755730379377674,-3.4001833172890388,-12.88337889416054,-17.348142056849625,-16.64595003228351,-4.613018378056175,6.36842399777335,-8.004257524265709,-1.6644001910859227,-5.8640819260297405,-10.574125199243051,-11.773366572542631,-5.447303074702857,-7.0798881224000425,-10.261842865440158,-0.10576787428044865,-5.692754267359424,-10.6966427912608
14.6188721285311,4.4659665552256085,-2.2516482461852103,-10.699526238245689,0.05833247830340671,13.24182485090149,4.743590480933353,-5.941429114234715,9.467784006746028,-2.3370788840257077,-2.103611558872151,1.10657063549719,11.732935650817588,-0.2015671766844256,-2.350881107578824,2.921831329357078,-3.9971776527299294,-0.5861634968424463
8.882282514858309,4.031438027261629,2.2270841453636843,-4.148348736039294,7.681759501931121,3.2652584722209266,3.0211017821336057,-6.31991842950799,0.386687064185649,-3.0085048007627515,3.2415897549476442,10.3726839330927,3.719684498314492,-0.45161378864616886,0.1885342531033335,4.1915963640132325,-4.8397755556916255,4.836638329510722
10.960371216948806,7.698810972837052,-1.205025305172947,2.305390051788754,0.46257676497617783,-2.1203660998377707,4.130668755424356,-9.139736172094223,-2.1494648240540197,0.7155363572209898,6.0474233243563935,15.14605207889657,-13.959455596289267,-2.1658810410234137,3.8994649345791412,5.559014951208651,-3.923603748437519,7.231951292742459
-0.1433024348936467,-0.3524215813546929,-5.028334357301464,5.14601114851564,7.01455416347785,1.9678192533360672,-9.506122967690718,-9.420348268056257,-14.351851767363012,-3.4698159882614927,2.7005510911891015,14.743069439418859,-13.374351381324946,-1.731034755722975,2.3364935007863052,2.8247948173344755,-3.9830756304016015,4.646627684131904
-0.7955930094241985,-13.090855359929737,-6.801402727431993,3.592252355921839,8.78277274186508,-12.986265031713277,-11.228731255361454,-4.72032185074028,-10.634141713584743,-10.38868713692795,-3.8692962142891405,7.796526323954703,-14.837793904195195,-1.2955476144112197,-1.8636273604355502,-2.155576516902692,-5.21350368663324,-2.1380634068027256
-8.477264773708233,-12.449761391738843,-6.914864048808401,3.405920108080317,-3.8031747316324065,-6.259361292563602,-10.900608559593264,-0.6061587027681924,-9.55130174701276,-15.060518060228002,-7.021393523413904,7.197243224495806,-14.052824357953078,0.019497458354049924,-4.50162082122242,-3.034355565731374,-7.2242542835098895,-4.137602640776476
-1.8989602163087262,-11.90586070703075,-12.400077720947444,0.09475815644940377,-6.426460032996266,-9.394940080800374,-5.299069916252131,4.386996729628629,-3.7789983864374825,-19.438449457169927,-4.7049293267327466,1.8122366825182905,-8.57798165168916,-2.864104793595212,-4.698572913662828,-0.5928139414689131,-10.210640544375206,-2.2309023500912324
-3.814963642102036,-12.240368052836763,-18.86244696938654,5.963641578051471,-16.860741313259638,-12.138959659887817,3.0367632157754088,5.7668779014879785,-3.8642651470461384,-17.565345241573777,-6.392705210141602,-1.1318214874973789,-3.6867668145011816,-7.700229295403977,-4.798274782963482,-4.010788963011984,-9.094457936447464,-3.7422856294545452
-7.291607325292295,-8.179718223091253,-14.094755218256347,7.8287752857473745,-4.734411213368601,-0.8193578615886956,4.536412338721657,5.779602390369913,-6.584394716919821,-8.952902932471043,-1.7330012575694722,-4.467006573917899,10.093637238281477,-1.2074265125854957,-1.0897373682471627,-3.0342277033116476,-0.7506570379029078,0.019793899815295335
7.104966267396889,-3.2395425629433063,-2.9798898157482214,11.451965782593177,1.631835419357865,-1.803746431471946,12.969599104176261,2.2766895242903598,3.2952217376439235,6.789522058770608,4.879583951510674,-2.6268280766130414,5.712052132417791,5.383660141138782,3.3996446444291486,0.579020698369201,8.961299173679315,4.856061011978288
-0.7626077052719875,-5.037097447546335,0.028803963646170327,9.020593687938996,-4.793309301354136,-0.5411444390812221,-1.7422798972266778,-0.933219158866776,-4.792287573871393,6.517058797521839,3.1909877055492766,-1.666066430419905,-12.046277868262472,-0.7201367614564846,3.201033392713542,1.5554284404784944,4.806804361165527,3.6375083739775693
-5.40569356098565,-5.271427560807294,-6.338223623824581,5.515203568903283,-1.5485161367273514,-4.746536134067864,-15.477782030280009,-4.338422620375237,-7.311406888662399,-0.6881095539036517,-2.111218178930112,-1.3894065552057566,-18.47393015875696,-8.38583848308921,0.07226411604359939,0.676247604353533,-6.475756587371352,0.8563998291465839
-12.293160051323902,-12.634024330737814,-9.092491646471732,1.7170571520822397,3.6513020438035824,-17.544992394929075,-10.07258653390107,-5.790460764824815,-11.781782276840786,-10.62668698823508,-6.339461587806607,-3.5546880235570697,-13.18026007598897,-8.042990296539735,-8.623425916341857,0.08993863902015087,-11.89790372039416,-0.7528399983468812
-10.096745394387167,-17.35906626891375,-2.960480026262153,-0.8113219317987737,-3.3541788925017606,-17.25651850803792,-12.089617349811531,-5.191685960971391,-7.558720597550096,-14.314148378470374,-7.1499558617770775,-2.204788783553293,-12.083466209211542,-13.558995274548314,-10.6788225933676,-1.5707166341946468,-13.705764852717751,-1.580834061469183
4.113245807739236,-12.415148592230087,-4.641659598027796,-5.976243518050757,-9.283458522589918,-6.517897446928672,-11.665461062370643,-3.2257124148087786,-0.20871401540354384,-8.918406372873733,-6.886485549152849,-2.9061999631289495,-8.445152089074176,-12.433666819028035,-10.488527282615246,0.6748167440194716,-11.60636686045018,-3.678386784001467
4.750448137216142,-1.2202447078897174,-9.839086448541304,-4.695538022611928,-3.9800845404576872,-4.37241291298208,0.4773495912449186,-2.138678086525405,-2.5249278969364317,-5.5724306070697605,-5.646706846451192,2.7396443086402296,1.6410036288034102,-9.354580764982234,-5.904072414486301,3.6038236019444376,-7.943495910548461,-5.287650608618069
-6.9156259451309605,-2.133962276437414,-8.884640340173714,0.2963775616227754,-9.514659328593464,4.512175542261762,4.41661786056434,-4.762667285930641,-7.28069130246624,-8.377833577289373,-8.118189399907857,6.138863279553144,-1.7471669756812038,-1.6849826099865877,-4.542764084296662,2.62638045826558,-3.107783678919506,-7.482852322622245
-8.033104032056078,-5.195164349031824,-8.80967398511011,3.0423807953411512,-4.890722322133118,4.022315667172094,-1.4101975719115927,-9.730481403326209,-5.784467604043082,-13.1353200237301,-7.464889175813735,7.3891152327384,-7.769644360658381,0.028087050064015573,-4.256134025261414,-0.011394294344321265,-3.5446420486779857,-6.455331584061248
-20.47735928922498,-11.087407703007276,-9.907155416529722,0.12445045876642252,7.2550134637192984,-7.111568661253358,-6.846708922183707,-13.917082411581728,-13.759155614731563,-20.430824116264347,-9.83924123012562,2.681749011133679,-6.5629870794657,-1.2856444293956253,-8.852835773146545,-3.9188792492932842,-6.421997916930524,-8.552832901324898
-12.119035140931672,-8.87297811141842,-6.610587656255172,-5.234708364955719,10.223119953595095,-8.674351105122696,-19.80321004937118,-10.388780323161242,-2.2004095640280426,-15.127384034614352,-10.94430207152966,-4.565213603381845,-6.135120837524351,-4.3566314723183694,-11.30151336598406,-6.849955848235264,-8.517147557242966,-7.2322789599839545
-19.677482333037865,-7.438682690263349,-2.7286161847410186,-3.0740065520682327,6.7480588655537215,-10.627147396466038,-12.349603902027146,-2.4659477719595517,-10.366644433852255,-9.041574421227132,-6.580785594643468,-6.929783310381129,-0.8218884414231906,-5.37622746576068,-7.50054270864077,-4.995981589076745,-4.36125956795601,-5.911681816443513
-1.6482022550788642,9.817341501789192,-1.483939456981298,-1.9873256368002121,-1.9982324321146487,-1.0557398414540788,0.08417022456823986,3.9919414537025784,1.4888361737996376,6.811128531234592,1.591130251654806,-5.19322080375432,0.29454780553206905,4.2494432531524104,-0.7702876258675726,-2.751564028117515,8.78008036857201,0.5848277257023293
-3.442085489414441,17.11349804132783,5.912646682345375,-0.21682673338584113,-6.835882399405251,17.98903204904814,8.513584152224542,8.008300656010647,-5.697068026105711,13.875765693111436,7.907300525017757,3.2812343088547693,5.808075813340378,14.656943233513633,6.4478080411346035,0.7622073698864588,15.574604271018769,5.811847902828151
2.480308819176222,24.801554186003518,7.742221520558337,1.8468587224760356,-1.9053831919622182,12.522247373392934,18.700428722882467,9.583120615863272,0.20503485191420978,17.32820855143626,12.367729560576691,6.96997028429169,10.54284136415306,14.908599644636501,9.173199520322367,4.275772991061242,15.436362532551724,11.917858195139427
6.841453068974364,16.76802942119898,13.965883204981672,3.715441512491223,0.9767215273109477,10.766965332865773,9.062327789799317,7.739814784375374,5.718371657264232,17.266125850507994,11.554401135440841,6.751908564437324,8.932358495230899,10.57089749135006,7.405887089814244,1.6366863579526818,13.15058085563524,11.383221915965757
-9.79258571974613,18.11100935509956,6.614616741380765,2.0685579078158174,3.568313421025355,-1.2418989751089031,-1.7481056139259816,4.431528884043453,-2.4385156725391206,10.466822898265537,7.322817339813753,1.6504737190133911,2.050866773980094,3.206354177225426,2.3177642036262514,-2.565147438801588,8.717255268212956,5.6728145746866465
-9.628305187874215,4.611420592809955,10.68881332542826,-0.5546914623571411,12.803133813373345,-0.06651633990997952,-10.312865679720396,2.1973551426576945,-3.952822985366364,4.645271613554527,7.094971798195016,-2.670183158373386,5.718923716056323,1.5065018752431378,-1.3059390123672705,-1.2983796425354441,3.991878446657904,2.20863393064232
-11.611350358694667,10.35186035607061,5.582700029461346,0.8262374810054984,14.13022062054464,0.23036988134503766,-3.8388033126033765,-1.6971321163206434,-4.391047659958023,6.930497179766847,5.695010006469091,-3.0850120184328134,2.6511121054059656,4.983044921455338,2.003612029094639,-0.8131139829943443,3.5643593731097645,2.162582475845106
0.9577085532756182,17.94929655705264,5.456659931488701,4.062873730203458,12.725474678868704,-1.816135538618421,6.736399957855371,0.7559929087257775,8.356363494933417,12.732595661461868,6.736274427107587,0.6013051885192316,7.4960949160326935,1.9170472702234687,3.0665911692856547,5.921998651285449,7.532350563229649,6.218274104654423
-1.4138100758604173,14.805926110829974,9.920073341609651,4.6629604549335815,2.3388406321284796,1.4112416642919172,15.162634353506448,2.5253641011304886,7.140551738211457,12.481118068324305,1.7225481058216057,6.630931919156481,6.581789636637852,1.9766176995864515,6.863544839283211,6.01612857554557,8.571515861472783,5.391206543179099
-7.98359923974925,12.836038438558598,6.863392264201851,7.021095115995853,6.798846484605057,10.010129428445982,16.65465641851898,1.7554756351153067,-2.4719991225724156,6.859677813119604,4.228263727866614,10.120984160593682,16.119381384815068,5.35706392704858,6.55843317832397,7.18422947649339,6.8771646830289725,8.763559552042842
8.983094560941945,4.22705918265437,6.443033965976067,10.258357143630262,-1.0433207180188786,19.195268356982165,1.7396513872837467,-2.041969889013038,11.45278415902114,2.3136946637446276,3.1204461003433095,13.024619930093376,4.272446269133175,7.175490916158546,4.983332860440276,1.4183590914976165,3.718841166755374,5.592991756913376
-0.9051675614911119,3.4323784674971343,0.6510765598165933,7.734019236432033,10.062854064521911,9.239764491192666,2.254028788630103,-5.644275680705456,6.629091925505791,-0.9615072933545981,-1.8938704275671712,7.138592497669819,12.35020689621177,6.845943930955787,-1.1821168108496962,-2.101662352683095,1.9286128794617958,-2.167331879557371
-13.624626769908202,-8.78653419684234,-3.8717403057971285,3.8426786663467594,12.773241179476216,-6.379644791461317,-1.236115204823663,-5.633429403324977,-6.298390722475352,-8.141779989971958,-7.29899924427867,-0.7010526494763369,8.125606679014028,2.6105750903512845,-6.371421922894065,-4.840708066609536,-1.3256019494722997,-8.755594403446077
-18.140003911822777,-13.386375427711483,-10.0551349975276,4.248483267556372,19.19743738045168,-11.06117472840631,-6.2893504103050795,-4.548540802465875,-6.333258624407899,-12.781704589469788,-12.60664327499925,-5.61142458063053,15.622446480374482,-1.1360261180890205,-9.41268661392337,-7.77536230909233,-2.1375014246982253,-14.36710087589713
-10.6426928373072,-3.5310596170833275,-18.58269733659699,-1.986235004668686,-2.8915752099414256,-15.547208082350444,-9.585326761968814,-2.6825915346976528,0.6650144500360771,-12.342172166832047,-14.594088303577173,-8.471438775285604,-2.5621922531925447,-6.542339051786181,-13.235639853997805,-8.36653042998658,-5.682953881266631,-16.658054973959054
-7.441582085413401,-6.467052719153391,-15.684671078674889,-5.486334296167165,-2.5164204746540477,-8.411820878402649,-12.002976795780544,-1.6957715541146696,-4.444498317044613,-12.292008793956,-11.308170309733834,-7.034962758677494,1.228662720006171,-6.869988966320644,-10.808920867537665,-8.176742589104673,-5.711872449478921,-10.940874465459125
3.768157454414373,-0.7096086106782407,-5.3650081590882825,-2.6384794651897803,4.404725110452388,4.485490590527977,-1.530411124063835,1.7322739943891174,-3.009178697149765,-2.1818292072864454,-1.3816712818796966,1.6277404057703613,7.756430785667659,4.717056376719885,-2.230183662033539,-1.1512249290533942,1.0960971501231231,-0.34059618057626195
9.021422591387218,4.463830436479555,0.7550362794589165,0.4048905775329915,0.8794493373158492,18.164149438252736,3.2773872022315604,4.281173695707815,-0.6931861423596881,3.92565877071361,2.8805436080935527,8.532163648407082,5.106860984983676,11.128682639585211,5.95750714641469,4.409108902519209,5.46346033766281,7.4278294130057105
16.71673242857022,1.7289767014866575,0.33169292624562363,2.374223894749482,-2.447520126029554,8.893292425098862,-1.681219104395936,1.5563210493660633,4.94491194152374,3.7843335574529986,0.6972229626393673,11.725157489431243,-10.821679277939364,3.4780254177127254,8.675953276240106,4.988574828020662,2.8002936826063047,4.942425215531323
7.322492197845196,-1.199165807473955,-1.4591610261734773,-1.9063410851049731,8.779537938202605,-0.18222866044153152,-2.6365006658915346,-3.0242711807154556,-1.9154496421378435,3.644296638942092,-1.4862114064114074,2.5151886886948076,-0.38015585762303683,0.027071830805778685,3.3860579133159634,-0.09643645535006241,1.4074950795273078,0.4064526949731991
-2.559529200906545,-4.711185766559817,-5.105796807559965,-2.964004936974276,18.837760217525965,-10.331997293077436,-14.725418968232091,-0.378441251791481,-6.820937031530653,2.626634141166445,-5.329929678677695,-5.816284142964341,10.649778665136182,-7.232123327987717,-4.9316295500596645,-5.084123082669426,-1.0587316207949762,-5.496472527425996
2.7935172976505687,-6.072624420616721,-5.2370207407525005,-4.900394134825253,1.5549046459118854,-4.66125749881324,-17.04922917267649,-0.0766557391916538,6.048991612794649,1.5126134367934683,-8.19716102670515,-12.780966021433011,2.54125077239799,-4.5298294379056365,-7.585565387814295,-10.658093711453297,1.847013681350143,-10.52021084524265
4.826613808396289,-4.111547110444358,-1.7551566251029906,-2.4419921148003945,-3.712927757867549,-2.0179864000344567,-6.2875794569181505,3.642884029635762,7.68997502242745,5.673415344248678,-6.083925819717083,-10.761546588917115,4.884544898244931,-0.36228084738431443,-3.8921403636298955,-9.005733272421029,3.874624509502107,-6.754473582131245
2.367820041612788,-5.273323162752137,0.5545852157555782,2.2627294245710647,-12.883917430043352,-2.0115865065262346,1.9342806158902288,12.830982645661194,4.742726695717533,3.9760622532978145,-3.7754405986147646,-5.031536831220361,0.784860360953898,2.4384368108515084,0.875132804676281,-4.228670651505972,8.051479347995087,-3.183760965907841
7.136017269587473,-8.19070295058838,6.379795725292764,6.674667815469424,-3.6920689362254855,7.076837343142526,7.1280513962792345,13.620233098945992,7.461296132990627,6.3816480748015625,-1.8576386393255269,0.01447229128710234,9.773732750250012,10.220065269383149,5.446708931183319,-1.3074540486805575,10.373599045001551,2.2427515477763103
8.974752850914008,-9.445624565064708,7.517244612941034,11.086794848270781,0.1318170411474897,7.473542612918632,10.074984038092083,8.842701984243817,5.493949283976373,8.007289866804538,-1.3070837423313049,5.93901233860356,8.608606685009265,12.142583793173168,5.037364362472383,0.7344908357406199,9.376105353372687,4.4468736050067745
6.516770648857012,-7.963812126488655,1.6231664517245985,9.834960162475733,6.400389384166464,3.9637245727745696,10.09146376396006,4.846134583434639,4.114190142516567,4.067762074076191,-0.9518689929418742,2.781001912909445,11.742813699101907,10.745081848433948,0.6236822821883399,2.1901344746046956,7.305113821068934,1.3778049228590783
3.3753591820228124,-7.456219294326887,1.783719203670806,4.677001650449602,-14.378960248230968,2.4068134784549686,0.6344115495418219,4.560255319076319,9.962730690815608,0.9108211633555796,-7.920994960622759,-0.572696151740848,-3.7732299124771203,1.9259223812179884,-4.278652721604628,-0.6515196483012153,2.98871877163539,-2.56984381086623
-17.149003054129697,-9.875960686175706,-4.696582126034295,-0.8714034641798145,-1.365431048991855,-5.302817398552792,-4.3311260469101525,4.860008776002081,-5.671819386969148,-6.05344364729474,-11.472095346784904,-9.39559094947986,10.596357175810978,-4.9397637049461345,-8.107110710328012,-3.688848478996953,-0.6433606927102531,-10.22813456189501
-9.352541671353526,-15.027680927329575,-6.391760284734886,-6.51728336556816,-13.934900793028369,-7.739246891255908,-3.04731983769948,0.5695270538028807,0.17993049438690356,-7.645202131893242,-13.948940614677323,-15.875053996812019,1.9210635502043996,-10.340277431672634,-9.689792560188002,-6.042934026532337,-5.348977289837286,-12.612542627241263
-0.2864987227660928,-3.379792398431317,-13.262882683693434,-9.623880448841343,-17.223528484072485,-6.2697179108898045,-7.819055074476817,0.8686301179960637,3.689476311959343,-3.571478767312003,-12.42178285069657,-14.249268947692892,-7.3378475337075635,-10.17400619413357,-7.464168049363502,-5.46764957424641,-6.44057316749317,-11.871525573506743
-2.939401702710077,-7.940571991878669,-5.290090092520909,-8.628672216198327,-19.434536983524954,-7.632649184820512,2.838361213318395,3.70649789224062,-7.155099745576428,-4.183992055069457,-6.7929482055329355,-6.666695997139522,-8.195881659441241,-9.128534149794866,-2.797439032428543,-0.40047222113012726,-5.285370626831284,-4.489391940358079
4.85700833845028,-0.09626290575807817,-5.227613051535331,-0.30895454529758937,-2.9895062087639417,2.136981370866397,2.4596717150364142,2.4423965969020425,0.26387141666305003,2.138530684692879,-3.2148578111450377,0.036633545637585474,1.8860440583815103,-3.0045912445981635,5.677609476416476,-0.5095188161675863,1.3393215662242994,-0.5248760573782794
9.918888428429161,-0.9408984200399215,-9.266776383817636,4.495262154685783,-2.7522229836068712,7.02326952838657,11.650649986185043,-0.9705263226389573,5.242932448284058,1.1380606438921779,-4.0312805608259055,1.8567632478957923,2.1068119474406704,0.7758213647177228,9.269445332686887,2.799091563471454,3.570057228397158,0.1196927982623226
13.906372118780027,-3.540740765040955,-7.93475559724445,-3.493508629578968,-8.46859864156957,8.295730983813174,9.903161095416861,-7.020566821706859,8.368013027324421,0.6272179328932763,-6.996071204157648,-3.0617926291561375,-5.092154159355694,-0.2287528604519543,9.149968237185103,-1.1193346014332803,0.23492882191454356,-0.21188656208831302
-6.813761696872497,-0.3761061200917287,-7.872252949357083,-7.3804789959918455,-15.353378421739226,7.51685458142102,6.3970232185400935,-8.188086051348282,-5.204880424184432,-4.179226170685883,-6.152090025567827,-6.906403141887245,-9.066180889026219,-0.9401245925271665,2.877741584813848,-2.4990227763967083,-3.6855337773663885,-4.839964203025451
-2.4361134857162696,-3.2635436219558898,-6.149511806390024,-9.509435787277233,-14.617340680847605,6.835075543622438,0.9369115779110508,-5.254352951803511,-4.61591940497685,-5.663967748310819,-4.917340041366286,-6.1613775066982,-8.155107577153027,0.49718995107092784,-0.2697423442793039,-4.1720465407665275,-3.1131431567231176,-6.34253873525682
0.866994529681564,0.8831208975769718,-3.2547960989696847,-9.099118095520843,-2.8424399540872507,7.324593899620938,6.12066545059163,-6.520282322694379,-0.41215752963822716,-0.5066438063602083,-4.073064982299551,-5.611932448947261,7.992764712219534,3.790204153441995,-1.4643694055343857,-6.236062386707008,-0.9776467862959013,-4.9149124756341465
1.8259639530638747,1.0285993411178633,-6.805384466179284,-8.49331262868685,1.2210617311662555,1.2704130270505496,5.834748607357516,-6.224074244990769,0.27737220384272576,-0.7191569144278016,-3.7169041171824966,-8.285444972930605,7.540990588149555,2.298178176270979,-2.8546028050004955,-4.882416838847828,-1.4783429380563824,-1.6313073922708057
5.323634125976653,-4.487253807828165,0.6794839701536288,-6.324811900274536,-10.434746729814817,8.39936125757718,9.747268309303848,-3.486815662002202,2.5308540348840833,4.538501185749817,-1.5050529523520182,-10.373249880268624,-1.8931488977704873,6.568134337575429,1.3213712450288408,-1.7712895097817094,1.048901701010959,1.7504503600724233
6.184097282938457,-3.0665544992300733,-5.605231111544294,-4.644429260684594,-11.930541119644275,13.476795943571181,7.506495183000664,-1.6288761937618932,5.176376562120709,0.2270372474314848,-2.5156950085549257,-10.01983638953264,-0.6804712168144702,5.760049761676429,5.008780009569544,-2.664484741278414,-0.8179168930918168,2.9842459038032425
0.5009964262647516,7.5368603469466615,-2.319303886073915,-4.135769633345179,-9.711709727636674,7.90880077402409,10.147745041088955,-1.3338663237746204,8.506894222578183,3.729527378241224,-1.4752931392576563,-9.178345207784858,-0.9305599310998636,7.881845322066829,1.664562078567593,-1.6048777058460957,-1.7076389341447242,4.1209048884950565
-11.725715670712047,-0.5094306890909854,-1.1816370025615766,1.4512616688685416,-6.317331774552034,7.906525458832129,3.022348138769293,2.9646989888436064,-4.177085585778567,-0.38395337578549626,-0.14166729949770573,-7.262815432450294,2.7277363509751464,4.144310497504659,1.445129623059839,-0.7409356596606957,0.4305320617029078,0.5705265786811835
0.07078661425755745,-2.4003276511816565,-1.1179689398570027,6.5501728316330174,-2.2356744934642077,3.8018186171684376,6.833736765763233,5.016718385969357,2.769493004183117,3.2188577974224666,1.485202042065974,-4.3708899888362085,5.216190309662107,4.313205310349312,4.83877854988263,-0.9515748944720892,4.327029286156874,1.3176360464151875
6.300161183223029,-3.9952615673037677,3.926506758395327,4.129605988097707,-4.205101061662503,8.680782388993068,6.1519794714599305,4.919843778595674,-0.4390002683169918,6.4323656965602405,2.624072634754061,1.7435742993978431,2.433151524895551,8.193200215390473,5.30244747820003,-0.38129464111561573,4.708318468015233,6.264588443415543
13.407772274236494,-2.5597829353448374,0.18207546423534104,1.3185756354999965,-6.268469035244071,6.332196965046596,5.078692952261715,5.310828484178215,4.752385480591265,4.080706942587901,3.274964263299033,0.24058375213108185,-2.398700399466999,7.288057692825306,5.082271635442988,0.48162043742449745,-0.08579838554502306,6.817515426794798
1.764367752507723,-6.492425253065813,-0.14401843373916767,0.36320930314716127,-25.027574561917692,-0.11892479854749194,4.395130868578753,6.580297963438132,-5.77783151896852,0.6561340471542743,1.1917687790121372,-0.5789379383662614,-20.31471639063714,-3.675754403494695,7.205648160223939,2.6137521054419484,-3.7075846717567673,5.710846392837784
6.429030225647265,-2.707019834292394,0.2138353273820539,1.7517952326333246,-6.08703735207518,-0.809185831447194,8.300567925143255,2.868782479342186,1.4669334431896341,3.0923426420067197,-1.5746813350073094,2.7030462011623726,-5.415785330045301,0.2044734453141328,6.887354965495575,2.59708414017999,-1.6648009348642467,5.386037387074178
2.4013324023491904,3.8159194114726858,-0.30686001614865255,-2.230628475063685,-9.311033748449313,11.0974211647682,5.564356036170355,-0.9408361129421434,-1.736426881093045,1.8188698925145084,1.9093334532906616,1.6879868578780135,-6.628462214598223,4.084750497649775,7.9360510785176945,1.0175679779581541,0.6713604540174498,4.573550187249593
2.66970821496763,6.631011778577254,-3.463916640493598,-0.6463953248940457,-7.355378848552152,5.815251137290473,3.3155024266236297,-3.774327639987603,-2.692426801226203,1.2303094220505078,0.8038239892906596,5.848701418022301,-12.52681906340918,2.5938867957200777,7.42201143711465,0.5119679059280693,1.05475474668274,3.957001220466199
12.019341758046853,2.5155812675630314,2.8522524219002663,1.0356608589725833,-4.126365324491681,14.59474685023423,10.245538342858517,-5.143408178260418,2.798195812788973,2.5962067892274883,5.069899763320354,7.958533941125365,-5.044201983608579,10.087555894734379,6.907767005246518,3.619390773946564,2.317439631699592,5.68487285273216
10.43035148991931,4.067505039141827,-2.4523974886327435,1.7413045792250155,-2.260735990067766,10.48233820575679,7.506512507088422,-0.7511417406729337,0.8680210074492979,2.400877907508427,3.769913848362016,6.7479508563125385,-5.079395806547321,5.471671699658675,10.397292231313546,4.187404857656814,-0.3258309725702486,7.120418011391066
11.281803381979614,1.0327482960587675,-0.23692209871530912,-0.1896460852029066,-3.6139725362619353,11.54467360344518,7.012661997527445,2.761740969153454,-1.3539571881162495,0.8396324396859722,4.716505373909549,7.685802868619195,-5.698729825934215,7.203532908098824,9.687344030228017,6.5129569214476986,-0.4296630599299853,9.044910349205104
3.635986524943084,2.493508000747757,-2.8061694881348576,-0.1672776728614035,-6.525878843227708,-2.140459142810104,7.689744684994924,4.711631607094776,-3.8677599115196752,1.2328273598809956,3.8080691005729177,1.9829108157380806,-11.199173848050561,8.34942583556527,3.7036943355909457,2.881091982921415,2.103584250102085,5.208266043188068
1.164940968784168,-1.511279020915182,-7.5233535483623,-3.953397166714941,-2.1095868917670924,1.9469346008440107,-6.380457809290254,2.0711362827556403,-5.403857804580229,-2.4743237810109893,-0.4202413201679742,-3.5246658614718775,-2.6351559188212486,5.393657775557014,-3.7449979170152385,-3.485477757203995,-1.808275740154854,-0.19022072540426205
9.337457068254858,-11.176902759913244,-6.673485761468331,-6.56746012749045,-7.7481616685881995,-5.5881573757440925,-10.490543693093732,-3.2065939237776937,3.9988172475255626,-3.738759320619444,-4.062096642216223,-11.27835286533043,-5.495376237572712,0.38702730326574564,-12.46341017418863,-9.461697552734813,-0.5439888124006145,-7.54116975597281
9.500863873790397,-11.952335298303346,-11.682494780258384,-8.98604426111297,12.203483787899886,-5.116561289677559,-22.316570098993232,-2.625339112914833,3.4414873698342254,-3.244090729858294,-6.043242216191763,-17.2741648896924,10.005745525817476,-1.6899346861590585,-15.81080902200216,-10.359988531369552,-0.2560094353919655,-8.934293132970893
0.6785419456877917,-8.329808919343476,-6.241511188593812,-9.060679590311501,3.5453145251978793,-7.380660058710401,-10.022119592415416,-3.6070907904909717,-1.9976665321062974,-1.0879833987312644,-4.8987925845917495,-14.969015237156173,7.441841498321129,-3.1810276692387616,-10.759797412733999,-10.965572332795684,-2.213905041122616,-5.736788453748792
-2.8715201133159534,0.9602498641274888,4.864262400597392,-4.642896144899513,-2.9604715140675557,-7.790570877797979,-4.8576745326669295,-1.1713072207105315,-0.8927105306183714,0.5810843824644145,1.22676849785592,-2.6050463432175883,-0.10098233165153658,-10.238702825903541,-4.341725508440474,-2.0986134792766737,-5.538772737271578,-0.09711544028674024
3.049919683192278,6.347404460637199,11.283131997330745,6.8064069913749154,2.2565929380813623,-7.420559311653342,6.36055483625937,0.48272600946100075,6.268044927884437,5.767071596863461,5.399760469962361,10.05198613779928,0.5610373762213383,-7.237735100202922,4.127018027497942,4.228994168601981,-2.22269454899169,6.226896937400042
-12.124051512026435,5.878521059660212,15.163594129530402,9.75964878588672,7.282271216340497,-3.536238465418174,5.663539532357022,4.870685040141629,-3.9532796028755213,3.727618113213724,6.057678262499339,12.845695690187197,9.232553176683293,-6.678328389326104,7.126794388997682,4.59923814703523,0.21466687949496865,6.203901527275097
-5.131094307696236,-0.9346690239953939,12.208734226048607,8.513769421901568,-4.289930531478223,1.9092076576357906,4.96551943565941,4.57057937764407,-2.3570416914939303,4.52146209860866,3.8841445921524373,8.608175316964635,3.4522524887264856,-3.091662177540443,5.829503671711745,0.9652819565315847,2.163925928240923,0.7128279080330135
3.520627107475523,0.3611987626634867,7.985069191719449,7.463366782128986,5.724169402220121,3.3492593308075786,0.16486543654163832,0.16835348728077068,6.955111659118651,5.511835153741105,1.4182789800679079,5.445036051032459,8.70877275868617,2.350357967849903,-0.8390820218380408,-0.8134010478803975,2.746146438121721,-3.80090337963456
3.1863810657388747,-9.27711692372268,-1.12071194537508,4.850601072933181,4.316258949101395,-0.9739506129501958,0.8320324523373654,-5.30860438814336,0.740616342118401,-5.313174518608941,-0.7539541335358497,2.965665579572762,3.90800901013562,-0.2157121285377821,-2.722550441569589,-2.104010039716315,-3.2145482239318017,-4.6028661509674045
0.31154122614681357,-1.528854513363462,5.985487770887196,7.023224879415285,4.0841894346226,-3.540803300815565,0.9122374008581282,-4.242991938415395,2.9255967114027897,-1.9766181416751163,3.1292696215538243,7.71315117177579,-0.3053785591968923,-0.9264528525072113,-1.3834181202129021,-0.17211887186728947,-4.780507466222744,1.9202852048638366
-14.77204503722713,4.562742516147441,8.990883128888319,8.903035134043764,1.4146260344210617,2.484716718294048,4.995391313404141,-4.64274498782471,-7.095752398016626,-3.326449997521303,7.208503222934782,10.898314914426361,2.904618018749008,-2.3209772889141753,2.787691327521269,0.8806570209035947,-6.932292228134525,4.830892778037827
-17.94295138900082,9.681293088817572,10.141626519607522,6.876694812873007,15.448486054820131,-8.972032739575296,0.8742743717424561,-3.382816690851139,-5.78793761284302,-2.6242967821455574,6.503218975089872,10.66567845216617,9.533997199981215,-6.547767246521423,0.6109577131834366,0.37072332945731556,-5.470635755185678,2.3711259867763106
-11.252024943333387,10.701763130275143,12.953420567006486,3.3856467214784702,5.657806221747407,-6.562941832741608,3.8811499475573616,-1.7327582088342495,-0.37765369701941653,1.9853274754804973,8.337764088108079,5.843367608827096,7.277849180417423,-4.1340331253792915,-0.8822542475408579,-1.0183056798047299,0.48336567156203825,-1.845670293010011
-3.3908382038235736,13.385971760110097,5.805017767087952,2.238541969223121,-7.156317319811166,9.418992331123205,-3.1717455660178686,-0.7668049188925545,8.158499971303595,5.131235653868089,2.555749918963363,2.1932077484314663,-0.7388132410927097,0.5256159229625473,-0.5200442038138864,-0.9426339516914501,1.4568954528308073,-2.1553388969838134
-0.7071769410190167,5.917343690208996,-3.8815704790756413,-2.1311114437864127,8.940192531627304,1.5708322781654003,-1.241153679250207,-5.563159236037574,-1.7618591285669716,2.125844493853393,1.4620676732973004,-2.6285682122874796,6.968677551867166,1.8646782287555197,-4.161869048836367,-0.9647748373192558,-1.2805114523431114,-2.757154673577849
2.9513648095723988,1.0890529428329896,-7.512440324522284,-9.625656642257091,10.294320560621745,-2.567961355960531,-10.053938214860091,-7.723255125042856,-2.0133237501216197,0.5864456789509722,-2.9512017891976363,-8.719599354037964,6.571797434386367,-3.144246256036612,-7.510780653047208,-5.967604660582868,-5.092111573777329,-4.334714089308534
-0.22786280380327706,-3.5403351459532546,-10.556402950921274,-19.36617487946834,11.94535189645161,-16.669493326341673,-20.723244594944802,-9.981508612864175,-0.21321949111708605,-5.34643755698503,-6.680075981862448,-21.451042750214395,7.055022663997292,-12.840985660379081,-14.961369709038475,-14.68156193231809,-8.708369648080277,-10.306030602441863
-11.221466773631011,-1.0371134298846334,-12.13451689272177,-11.332830388850013,7.936156031738606,-14.4638516928271,-19.9676193793226,-6.38079653896869,-1.0491396883990431,-9.129749288315226,-6.794807982611758,-18.752230525794747,6.074531351719104,-12.08859956778363,-13.427491373521914,-13.43455198983339,-7.441729346382718,-11.78424268719083
-1.8063887155804355,1.372051655935556,8.74965330794754,2.462473783647703,-12.377970600668542,-2.396466453830985,-8.958954098544089,0.14915021967749187,7.783769172215545,0.5647953760045651,4.907866661647831,-2.4786411779514386,-8.772245901058142,-7.430165453465486,-3.6903998528769,-3.6914297260063496,-0.9992324809660822,-2.7145635620865844
-17.97945165037098,7.1051860721810485,21.138624862787285,11.375042905090266,4.910033106123413,1.0753313906184054,-1.2716727003670807,5.897339178642748,-0.7657085940824753,3.5220309645005288,9.580017934828193,9.303061884407018,7.632530189711134,-5.115787142057,4.484138600574626,3.610149326747278,3.1971178332283774,5.184084560296007
1.2954057179534253,13.232561373068773,16.536194706522224,8.080545354798389,21.42066224635184,-0.04450786658232575,1.238730272032385,7.250435904816398,11.486581828013152,12.632765618101734,9.272471745227852,5.7528879609652614,20.034378531568535,0.5186762779338139,5.724956082443716,3.5873096646301095,8.858301027591946,5.954585836878187
-5.9945067427235195,-1.1445763876346362,5.39176083646305,3.6143046021129788,6.391714040505826,-5.1700537521051695,-0.5488224073597217,2.2552878560779135,-6.534379134714547,5.728678476137942,4.375871939381682,-1.7031889726224412,1.1867524988081892,-2.050396099898288,4.133685517435728,-0.3419161792695604,5.3396089055179585,1.9407320271418076
4.389743274250415,4.111105099443954,0.20553325561146085,2.0779445079125467,4.452759469698597,-1.5081571661862654,1.5689231435173396,-3.130980251715938,3.1800847898350013,5.661666593970352,4.558347184862974,-2.615772431485587,-4.964402178837072,1.0443877070096024,5.667456922648674,-0.36489725555089825,4.359955937086335,3.4942492624622044
0.02576325389708467,-4.008710566478533,5.860417688692404,7.182457912797142,9.939631696906133,0.9800786711117428,3.8809771116156853,-3.8301630583106414,0.9809098575781523,-0.752079367060118,3.9604449637971126,4.870652834556943,-1.739486184228963,2.9669792304780938,8.177807908394438,1.5652234666352864,3.0872534901469426,5.927571363855431
-3.1682567434788425,2.328430960083363,3.703803931121893,12.287117143003888,17.676450921205237,2.294641189474034,6.777975375875123,0.5483735748581742,3.176917559473724,-6.969505513782321,3.9493850153141503,14.994298229688384,13.107590823686785,3.8150300165955064,6.488886161539371,3.8859340595462255,0.25193695797072435,5.822682436540026
-6.950176397110047,3.0050322424807776,4.8686919575187515,13.19263796987292,2.955787633310019,-0.6895286874862336,8.89271510368392,-2.2025843873772804,5.275830885435268,-5.8616117810975075,0.4235531086402988,14.278413559747623,1.8809033269065583,3.3932188613572998,1.9679079765229228,1.7143594972983687,-2.7787990935651408,3.1795871452765887
-13.27316962210609,0.0719014680529817,-0.21535973652149565,2.965319385372911,13.434596072362197,-11.68343527588359,1.8266367890471664,-2.121943665654049,-5.222561704036583,-5.631663567396862,-0.9528915032640985,1.3558082694587863,4.327113617452635,-0.4469297653001074,-1.9670977922993673,-0.4572321400272792,-3.172893801466559,0.34207556613402856
-0.4572359575427649,1.14633661113844,-4.224004186597208,-3.7461790984519343,9.366151347176771,-12.718063357326711,-4.263847824195154,-4.190244920400097,-3.1225838789641824,2.314204777551354,-0.4729122535024177,-5.99979127657563,-4.5541978217459675,0.40017180484539083,-4.925492218109548,-2.72648651978144,0.6321632767442107,-2.885163826219562
-3.3662052037567767,4.568148918884622,-2.4696539923651466,-7.137174514667487,12.528103138664079,-4.477024834481406,0.48470041871784475,-5.477751561322888,-1.6080509939401753,3.327316501115961,-1.359205324114166,-8.764944975004155,2.8740713539945006,4.079022237036865,-2.610326751558221,-1.2847396779423783,5.413653524054503,-2.400502353963906
5.051101381391058,10.044356573679085,-9.40563940606892,-7.695957153361519,19.111771488902956,-9.030975434731456,-1.506103666729814,-6.863378566663472,4.985165647170703,2.388200373570701,-1.36563400131595,-8.013870623823829,6.396730772673276,-1.32462653879058,-2.4435816429583026,-0.9172087701934901,2.4800250888223707,-2.207904138807014
-5.576887352816425,3.5122349595259683,-11.262204370800164,-13.918752025577554,12.417653014651266,-19.54387852039568,-10.431566872225261,-7.077570338201436,-1.8002668562855946,-7.143886151609582,-4.789130719936503,-13.512325061874913,0.34959331905244584,-14.150596206375944,-8.038585260769679,-2.795774568125651,-6.410895466625759,-7.873857518017168
-1.9488946638310187,1.671246154239069,-16.43790043889744,-17.60231060246196,8.559243290674823,-26.933568130519166,-24.338525050409736,-6.803925791722265,6.649349572936277,-12.280480088439962,-9.188244412222558,-19.498484623263856,-5.013316478305192,-19.94554397633713,-16.75857058950233,-7.799344637879783,-8.661272199181802,-14.613130753436284
-1.8386405652706332,0.41975212615974833,-10.381710836349367,-16.695822004123794,10.856872206280045,-23.680400832953822,-30.043173275381616,-4.675231017320585,2.794512676901532,-7.943395632991299,-8.410530460472234,-14.937007863061098,-4.516176551390931,-22.12749298295037,-13.564237603553194,-7.334025781529936,-6.028956734600864,-14.222471588376184
-4.953161795230786,7.863330892098239,-5.105524724139333,-9.441448590451948,15.404195157438203,-12.323479106945381,-23.15090256731571,1.4569900913967793,-8.091278856854903,0.20320137609347994,0.08311878315212284,-3.831845520153855,2.6222369137757555,-12.395537017722965,-7.1471171230741914,-1.6927791984535188,-2.2249552644591444,-3.967461609056231
4.528086952975833,13.454930625207004,3.4922952289642013,-5.604966079398819,5.404044125487596,-12.882639588745722,-11.669636278035512,4.073097633872373,-2.081897700882243,6.788118095276144,7.89414347550286,3.2699828578118826,-5.473447903645162,-9.10933240313095,-1.1205374799620778,0.6281836792677331,-1.9368511405703406,6.0931532339357855
2.9719253450402494,8.600652816960451,8.966349773054825,1.8449810880259694,4.391896061981957,-5.435701869368325,0.5919857272148858,5.223910500711441,-1.7363005458023841,7.905027558641504,11.213896952874364,5.001285057328206,-1.4591016924611728,-1.1358974155979622,3.148301008824733,4.218788519724791,3.722198408779242,10.197567136963718
2.6832228050623455,9.90229442438855,5.652500916876309,5.291087415641013,23.891324185710168,-8.537633828968929,7.090907510316686,3.444569185857577,3.1995569066598604,8.04616822847639,8.772833176470552,3.5105472503213893,10.856585880501017,4.688726001286444,7.417245691703844,2.926609479374264,7.330193798757376,11.373170475984299
6.982338064126848,6.031537230725502,10.15257474236993,7.858398779753815,15.854678548699477,0.9564530117376133,7.436511400835226,0.19994662711264466,7.159165368268304,6.918549078107296,9.653125933024295,7.294008437535954,4.12940992526623,6.7043566422233205,9.73314976150535,3.8806732593397903,8.496492983560032,11.182487078886544
2.3924999622610157,9.879181077850763,17.388378327396502,8.375020439383865,-0.3818517671661841,3.0267273036197526,9.246115045993774,1.9354607411749583,2.622861077673291,9.502696829237646,15.026671420184684,10.882850479756069,-11.288946579925494,4.715679906994913,13.025753377036677,7.373964619465607,9.271897672942842,10.992724835945022
-8.742507331332398,6.9918570732197916,17.203515556385018,11.040233302537583,8.38531977271911,5.778788162266297,5.000086985884245,1.0338150893294342,-12.557843675056716,3.6890334648413607,16.983195358401254,18.378713452583433,-2.0972315247489064,5.265765760521392,10.068391672465122,6.961084101910572,5.3594567240698705,9.436674447099534
-4.7426656588032925,4.5962131416244745,14.676197058730983,11.752410300818955,8.56188382254431,7.25948876523576,5.05016280995801,1.4013267870316504,-8.011408775255552,0.9034961332551,12.397652086718848,20.992415397611847,0.25872571351971785,8.647589287974542,5.548644021464755,7.817903161759505,0.07952298732725124,9.346408965069433
-1.0378966594027585,-8.245443947765178,6.1930938673512275,9.241998761237864,13.917533401905635,-15.48073055149891,10.27527790925836,-0.3800173493765562,-6.589762111222704,-6.861868505210911,3.02788230186813,16.57550033594557,-0.21714432296881525,3.630512722078736,1.1266997909218808,3.7919952202052363,-5.103047479697972,4.569488872146504
-0.4602720248826824,-7.899968901542069,-2.5816384000273045,4.192600743107912,1.209676441023289,-4.43316159600718,-2.9577245123995337,0.9633085738733853,0.5939343598253182,-8.767070135349142,-4.973675640638138,6.397532832776562,-3.2319049443589885,-1.7775264170834952,-3.197433300293479,2.9889635681741824,-7.063216758855113,-0.5971476345870879
-4.865284562875868,2.019272595235873,-11.94096700429079,-4.470021086970946,3.0559466797928305,-7.059454252952715,-6.914029356714368,-0.9164404269512207,-1.304311775315164,-6.081678402663407,-7.505396571792987,-4.365613309171598,-3.1214434566128455,-1.912375895569689,-6.251854719307004,-0.5483032853879004,-1.1134228031157167,-6.934765326167515
-7.221571233137809,-1.6326346453102438,-9.97064241969651,-6.6871217549349735,13.010880281544436,-12.226613058758836,-9.699211580306724,-3.0895238293211036,-7.987575454209318,-2.614364372249328,-7.594670991632077,-7.315359235030403,3.043936430226586,-6.539805946332455,-7.352952703311804,-1.1556459674767212,-1.6093625980127673,-9.072191825792776
-5.575969975520556,1.2617715993090401,-13.077160492444145,-6.853301893139602,3.8279132691736404,-3.528123327421368,-9.164782854726948,-8.680980812259008,-10.56901740957684,-4.712900522583743,-3.8742917285909693,-5.088451101085462,-2.6071673007318243,-6.968273443180408,-6.598377482202429,-1.3721554991713676,-7.672125365882853,-6.716457724950342
-4.909016761623023,-9.708010073794311,-11.69005892600733,-11.706947961027835,2.4605259832868995,-6.257324169018217,-9.802980617140214,-10.171156698995949,-11.685411283193819,-8.959285483081803,-6.598323319174504,-10.771013637044293,-2.59405437075208,-9.447869031039485,-7.796773486045754,-3.932238614082675,-8.754683747573964,-11.098207433760226
4.0567840252005976,-1.4360409361109605,-15.477450970247983,-14.412020601592188,-3.4938719379669614,-12.406264076479328,-16.984961410568125,-5.11859912663842,0.577472998789359,-4.415872053477507,-7.0752293427447,-16.355100085359762,-7.756768753605358,-14.955164921152699,-9.385609516887047,-5.906153360060391,-7.982093690354408,-9.619597253463878
-3.190648549648779,0.3936567151276824,-6.860941122742088,-15.163837811604564,-3.2929878361338023,-18.36158863426263,-14.304205182282656,1.3984984416604949,-6.300405812178948,-2.2156624632520114,-3.742489038166344,-12.563213455312663,-5.985785080679464,-17.43537557423074,-6.970279998662589,-4.168842557498573,-7.307517942819665,-6.577573018939012
4.501518003377607,7.7929468160229085,2.5382010609001315,-8.2005955064604,1.793567551853041,-10.060564034254753,-7.815471579869378,2.934734335319435,-4.974893814534981,5.844573448707079,5.938995126897481,-0.17660438727167657,-3.531232698515942,-10.443084037847083,0.03516868538896034,0.7914143239695501,-2.922312265976255,2.813088771694279
0.47273556464176814,13.24214381617144,16.040339497532912,1.692474390354866,6.3945570791159065,3.902948997733157,2.4812601533888152,1.833903639718744,-4.72348921081678,11.756880824207265,13.472995417134408,10.941306238133642,-2.24864219634999,2.7013530683984035,6.747856600862151,7.412102396993152,1.5601796488165212,14.841387723913824
0.4459167959150836,12.444266133023794,17.531947034305233,10.023113094289794,0.4511707820794424,7.41544490162385,14.437540988537329,2.0999831548030783,-2.3234990158822493,10.736010074028837,14.074277588640346,17.95845441070444,-7.802195558790311,8.81414779939308,13.363106186723549,10.029081399664461,3.796165051789867,19.350912080867488
2.077294002805967,19.950274577598073,12.774829514794845,9.564645005685191,15.213821520231418,11.023982308294938,11.549234574096195,0.9009079920126424,3.299299923229973,10.008613492088617,15.653112980863398,15.40601670465952,5.785033522598653,10.141435565535733,13.044882467726255,9.71659483872165,3.3950063147241663,20.443279624814085
-8.109881306752103,1.8728894046648978,12.316021244340943,9.985183468026325,0.7793388771426955,0.2752394826840874,6.023580618214284,1.7523664824596028,-3.870973313746499,0.5901583587768147,10.20156065728906,9.143467107918116,-8.850990982756873,1.800337145627572,9.69950175058793,6.181677546989191,0.25903934761989245,16.360643202979432
4.357594370228113,4.013545383549303,11.467948254206133,12.358960583332072,4.414002690360857,10.911974208314774,5.38024774373703,4.947341633152285,3.6074951655611773,8.65289825946505,11.098724142664107,8.838931023582756,3.271007081965764,8.400611224962866,8.209857603142442,5.772090365441115,5.716555974012082,17.064083950570563
-2.6107421366797405,1.5671297355346754,13.550970450273404,11.80308618951415,1.5079949087258004,1.6249883653942483,8.44736612707116,9.02097721934904,-6.785332741263536,9.68471950965646,11.117923170344483,10.293134299862636,-0.33012024696325426,8.164590294913323,6.622801638671349,6.144054933866203,7.462675221210038,16.10818213275074
-2.0613301159793305,5.666576638167912,14.756431889998762,7.438637350435088,-9.891907914452883,9.426592472136852,7.217024547162296,8.60210749245749,-4.580252297114217,13.158401864080131,8.989599009781887,8.232567185832304,-7.837816862232618,9.979137611426836,6.98915266896569,6.223343179091381,9.208385817514706,12.125719981012868
-4.638837197848056,6.839035698715323,6.4904465469749475,1.9023696534589314,-0.19548022946712784,0.13660551386455655,3.544743937134168,7.792367571130773,0.7499259674438754,4.425263144421516,3.932481030883014,1.4853445585105916,-2.2596658598481265,3.883172935108398,3.3517946667605862,6.302935050589225,3.434036695388579,5.50731853786587
-3.8001671285311627,-2.435190059065871,-1.1882440518167598,-1.7783304746557596,-8.075257872970507,0.7085928140500055,3.875959406156686,6.884740775988977,5.6895141180501145,-2.452003333297708,-4.932359722572823,-7.507082776291048,-0.49048557965494677,1.107345980287437,0.39830513331581807,2.378869589224761,-1.0711802861172863,-1.9891932912052752
-11.557192654024234,-12.19506349733862,-8.084330940365934,-4.970675032778778,-7.261380480131976,-8.97491005570174,-0.8714742384770919,0.5080615622865213,0.5703870375009283,-12.160990452235806,-13.210334809544076,-12.006323900270234,-4.581117261684825,-7.625818630663602,-2.4572565419689445,-1.935510777758802,-8.408894638357003,-6.262201321555649
-5.839233579003178,-15.311623297181129,-18.00647329788625,-6.4051171530490025,-11.621319836676829,-9.18700856785168,-11.283478425564907,-0.9859393928375257,-0.44709135345902684,-14.545314672215888,-16.60451408319665,-13.965527218289242,-12.773749668198,-10.695039554006891,-7.461012693471961,-2.147944307305761,-11.352437683515895,-10.729737827490336
-1.4902338428125308,-17.44907343755597,-20.309985555408765,-14.675541836553862,7.55622605474991,-12.134888257203134,-20.035697268922256,-3.0660852572971904,-9.081857828353659,-11.362836813622431,-16.189143643220717,-17.290996387175124,0.8108908780429167,-13.569139644356664,-10.120701724411832,-4.801494237998531,-6.581450011503787,-13.829290788714356
8.228224827281991,-10.990166565019518,-17.045689149048606,-15.914553966323378,-5.784360131869094,-14.205179810527333,-17.655304244481638,-2.704975751117218,-4.532821253372067,-6.519888031186987,-12.843154635005188,-11.826320933585539,-14.80456279806089,-9.0214352192378,-13.07307720425866,-3.4507447164891274,-5.521890631862922,-13.02177122150278
0.9525557866096044,3.3814354460006757,-11.045668220803764,-12.954232103812366,-1.8377062613284316,1.7899128907365611,-12.736154410098955,-3.02764816899105,-6.722167693407547,-4.899376922378275,-6.37124357849138,-1.6731208977682948,-6.396668496169111,-4.669218787135259,-6.259386619663794,1.5136779532353568,-7.099527473213403,-5.768090567637756
-3.7856554435965784,9.454488730643561,1.596376370822501,-6.185211425026389,2.110691509848718,7.822653185237284,-1.3719117562769294,-4.522380769955423,-4.028632712196229,0.9206631392149961,0.39450255285935665,3.7934652529260044,1.5224554895629332,0.17112535433784037,-2.082157825494308,4.427629150396509,-3.697059531558631,-0.17385435950852957
-5.791054240624596,13.283712873476945,2.1301472645830177,-4.494350622209534,-2.826098106620731,8.385332759058192,9.015462182650733,-4.454746339352459,0.9110184984600949,0.2955168268335705,1.6922640766634136,2.229655873230518,-1.5942516319233926,-0.5551708758156821,4.8297898894097075,7.439583114014686,-5.373236425990999,4.639843555710924
0.20991815719302664,3.2477751978556246,4.4230315086712775,1.5911466257782303,3.566999411045868,8.946821557400835,6.414092378709411,-4.38725818306668,1.7490270485303543,-0.42708442436863603,6.018250869105968,2.1316779961930203,-3.6372542702159008,1.1598392936327175,9.788889858389748,7.229180282232723,-6.170938053318041,12.383983393972956
-2.4821693655688404,1.3196043462580245,10.232855570075664,3.575052311594943,-7.7144431644189995,-0.25861710102511903,8.89068803963373,1.4419009446104876,0.1455691605961631,2.463831819653545,6.048118404837952,3.987823477235513,-11.833248707845295,0.7262544138016311,8.20523300684939,5.261290005944521,-1.5002523364698113,9.679440452591535
-5.175733832267072,5.93661230812959,8.817254367383919,3.2152009885566746,-0.3418255943256785,4.206912563740861,9.511577151376153,3.559940863725755,-3.0204404486813234,7.405720012974281,6.371765959491784,2.0362883079826384,-2.3537691839900257,8.398149780237976,7.207838924962454,3.684385463257147,6.6856645434056325,7.659182416961987
-0.6440567111528743,4.89151612860057,11.602169014588382,0.8045609429443479,4.2977272828896735,5.83929140907671,15.01517155544866,0.8926370766070337,0.06361289637864553,9.515671437659433,6.793863049965323,0.2810419909422277,2.8281706199225676,16.65589221236301,5.331845916413847,1.2289185752734475,14.773475148462552,7.592744840989871
