Fp1||F7,F7||T7,T7||P7,P7||O1,Fp2||F8,F8||T8,T8||P8,P8||O2,Fp1||F3,F3||C3,C3||P3,P3||O1,Fp2||F4,F4||C4,C4||P4,P4||O2,Fz||Cz,Cz||Pz
8.912314266555114,-1.921951645418659,-9.120599862839088,-3.70434252381358,-0.08313214771846233,0.44214034615239584,-13.196578321672781,-0.054660213014470216,2.6091873373273833,-1.9760820317165493,-0.9500788407489207,-5.517606230447772,-4.7539765820941575,0.31998963905991307,-3.480229333332904,-4.978014059802211,-0.4004535537220475,2.1794995255048786
21.771689791550042,-3.583087343539848,3.960246611128471,-21.383902069021808,10.740814485452981,-1.009463258384507,-1.4778520549661174,-4.559070035327858,12.349986050579808,-8.350789353741115,5.5943091886232,-8.828558895415737,-5.058775918840938,9.779422200474322,0.3991987274300728,-1.4254158722042032,0.9487264657703056,4.309961955330123
22.423086994821105,2.56966822769402,-11.670587209132595,-12.208641925916883,4.962024676081507,5.448981951400793,-6.655838808727097,-6.5240775494881325,-11.503921569457477,17.208995246125824,3.935725115066757,-8.527272704341167,-3.8994836856262225,3.9062480874051104,3.2036344683650237,-5.979308600791281,-0.5344615762923954,6.245065974001655
28.542509348309522,2.9618857635071256,-17.63366495936451,-12.70256389260568,-4.6264677926677,10.051812987299876,-14.668039347909414,6.159944448519147,7.220468501461131,-5.669088992277615,2.277391009922617,-2.660604259332336,-9.18643612776021,-1.8696422683945269,-0.24283995180280638,8.216168643285812,-6.80320046228578,1.637030186611292
27.53206047740843,-28.969343625023278,-4.065609760773755,-4.310703603347529,-19.39200106956423,21.490679802315327,-23.268539308436736,17.47719388769979,10.807398549199325,-10.77313483056713,-6.705051807842638,-3.142808422599266,-5.001480264327689,-6.669361597064574,-7.205864897249571,15.184040070743144,-8.677690371778391,-4.240655787588141
22.61439753499723,-10.800890958627983,-35.71355748570608,4.6660255043700385,-20.193787348316455,20.136487654044657,-32.75052366208802,10.825922075918228,12.342972480253401,-20.173832018456757,-13.636488486260983,2.2333226194230793,-5.993335086038993,-11.95780823580279,-6.94314545500723,2.912387496495345,-11.919765460157679,-5.430898176747878
16.71920411253212,0.630435194637248,-51.34615843543825,4.168871412886829,-20.020434666031612,17.122329781104526,-39.696181129105696,12.085497036994807,8.702109387004127,-17.757693767343092,-18.907578178659172,-1.8644851564592226,-5.423673743211129,-10.605999196183635,-10.00177341711576,-4.477342620438831,-10.572330763472706,-9.062740381847052
8.576880673902782,-23.58206014783701,-41.88129528088939,2.6940534796864872,-22.876038171320623,15.866337684366101,-49.18392148219114,4.16588082724498,-5.486399581746417,-16.70855514181649,-23.78789965309815,-8.20956689855219,-13.54661536356583,-8.37577295887453,-15.893515236209684,-14.211837583161394,-12.936321039941745,-9.56971954643945
9.027387202713932,-24.16013270517754,-45.30788050953192,4.245535771139774,-31.006852765189507,23.00934792243535,-53.79196121026899,7.770580570823457,4.836541252441962,-21.616369844660227,-28.863427414997286,-10.55183423371712,-11.709587131657335,-6.048422994312602,-18.36832993630335,-17.8925454198366,-9.831935191636667,-10.955831275949427
6.0587722802756705,-10.283614106226246,-54.10631871662916,1.0106965592245531,-24.295509807063823,16.187847769775544,-55.27834163166209,3.368114031431464,-3.591479877386834,-11.28944791511278,-23.68481122127365,-18.754724969659662,-11.338599279217066,-7.823263382794561,-15.375458552672772,-25.48056842274427,-6.435059518983971,-6.189746437724755
11.487572922304734,-21.894524189836144,-46.108352441815896,6.563959976610736,-38.289551366345776,28.01963164412394,-59.69804169973739,7.95099330579213,1.651874049748331,-12.779022720707367,-21.240558323150818,-17.583636738705316,-17.51190796207115,-4.618155220750235,-15.020546229117706,-24.866358704137443,-8.800499553201925,-1.619246167040561
4.903271791587577,-8.894446450889905,-45.923780679432845,-2.5325325777951773,-29.043117756746774,22.859732963541738,-65.29341804967815,6.187017971476331,-9.609671159412141,-8.604397795580423,-14.011050382788278,-20.222368578829006,-18.608294756762394,-7.566111460010784,-13.787966119229838,-25.327412535313005,-8.04142612753505,0.6071713848134519
13.942959646333946,-5.951882890384705,-28.454611594784474,-10.262911900938814,-20.091846338189967,18.481968276353577,-65.13096381852168,10.576442959483872,1.0033441283700846,-11.363460279933015,-5.80496674270917,-14.561363845582383,-20.68259114378934,-4.069313818421664,-17.14660251138773,-14.265891447184444,-5.329756828409702,0.684794013533514
10.774130849085786,-4.375298957975114,-12.45117756058684,-18.873305398303945,-18.85784585741199,16.15599524352576,-55.01158544574774,6.275355324279566,-15.14266663462794,3.9441330202095743,-0.43098655803004826,-13.296130895413128,-23.246558911052336,-3.60059287941751,-13.084603210170847,-11.506325734622575,-4.278852241924356,4.3754009113978025
14.147021869982192,-22.817327419724222,6.18810136599118,-17.035413790039335,-28.466282910292094,25.94066726120527,-50.853680280813236,9.104371836391913,-2.8711119129226104,-6.237007875997728,-3.455628110245632,-6.953870074706697,-23.370515201625825,-12.312415631629595,-8.145085609906562,-0.4469076502549649,-10.064596271482253,0.5459824602639702
11.073103755896131,9.426231098605584,-21.1703734220396,-18.12834523885619,-23.916893258859496,19.515344904717658,-44.551837916430514,10.372015755834758,-11.694497252718438,-2.5508511483635927,-0.5232304894137096,-4.030804915981927,-28.183523218003717,-10.282631993501665,-7.015668971058167,6.900453667917171,-9.210243909366177,-3.967446513678964
11.513416671275959,5.6352987696166785,-11.02927700008542,-15.316054882761737,-21.128004025419273,19.146097130541534,-33.957766299512656,12.617449676651734,0.08700146664193142,-8.142318222861356,-2.3761717920618914,1.2348721062420376,-22.841653427969263,-4.054338986445449,-6.571352239854166,10.145121136621409,-8.063570833258726,-5.942207285150603
7.2646613654181635,-6.260015421268197,-3.2330091189531753,-7.9149346727785765,-12.6777406022636,10.282023791993078,-28.544440558472743,14.082894800580872,-4.929560741084038,-4.944763725407382,-5.30348435936312,5.034510978186797,-18.087302988883437,-5.346493364783919,-7.105154134500622,13.681687920096717,-8.577753835326908,-6.5502191255125375
1.2565212823492828,0.6938199869135837,-17.313158466496645,-3.249310439303049,-39.38715009955831,37.94344510061782,-28.702662002455973,13.498860161922975,-8.189243329973245,-5.946703166850202,-6.668435454121198,2.1922543143206417,-15.190067019764504,-0.6823544145219093,-9.984327353832583,9.20924194873655,-2.7448796196778944,-8.623582554122203
1.3992250023866504,-4.4607035831016315,-15.964507863915816,-5.323144042597644,-13.16906066438078,10.234528415386091,-31.600522446334026,3.248100778497334,-1.9771144510195775,-8.218439919620412,-6.275735618313513,-7.877840498363364,-10.829625594999008,0.2699346946089385,-6.8103493954972745,-13.916913620853116,0.4505189322076295,-6.693489820529925
-1.9753916581806603,2.788501541530251,-28.777391032436086,0.8052050407977953,18.221785067152492,-14.933586756772435,-25.519255206298148,-10.126256955946165,-0.746548783390588,-4.240363058594546,-7.152800590802153,-15.019363675591098,-1.7833152618457522,2.1979191383124355,-7.837324911629699,-24.93459281661048,2.6686032323181825,-3.4943829657288092
-7.304852233633969,1.8356469275668577,-22.841186923201683,5.076996645709713,-7.422698977384744,8.435993525761539,-23.349839897628602,-4.065218243953422,-7.231991682385222,0.22568620739491418,-4.905057630061752,-11.322032478597997,-1.527944858006519,7.347701149330858,-7.401145676705644,-24.820374207733355,5.764850802073625,-0.39349526780618843
-6.385953322780701,3.130105330629177,-11.925673210462557,2.3163783903586346,3.9417875136683254,-6.962653394321029,-13.666474561433647,0.8254895572681042,-5.710575086855279,0.2967868683873691,-3.731814896182517,-3.7195396976972823,-1.3720149324208224,10.934026246565713,-2.279145712361369,-23.144716486511435,8.17671889797686,0.655993974780992
-10.449381134012196,-8.465078598609647,13.051284664825694,0.5312935776976486,-13.896804496927695,9.08648331987658,-19.02824646944422,9.135834998469718,-6.24107377995618,1.5393966587688297,3.30060205666652,-3.930806425671216,-6.100792893185698,5.92551251828146,-5.948131327941145,-8.579320945090187,8.732296388431418,1.0212690674780254
-11.194273099030106,-0.6251987036697892,14.100791529396968,-3.9892425500764475,-18.262141515698723,11.074991050572102,-19.708437022270992,11.97901740838126,0.3563128359970309,-3.077874603985929,3.3990043948812922,-2.38536545036657,-7.413407687714151,0.5253861246621349,-4.0524515987867025,-3.976096917087932,2.8416519008664984,1.7765415529002955
-9.79256662486196,16.298018516419113,-2.6247482604974923,-6.362332872380862,-17.845859030326814,8.280447967791098,-18.636918892652755,15.898157940239436,-7.305486711276637,9.492167432844436,0.07904611474802836,-4.747356077733048,-3.0637668685992523,-2.0436708917535698,-5.5766541817322315,-1.6200800727746607,1.7354086430543374,-4.793173162839172
-12.88503168095938,1.7766046316775164,7.504220225401376,-7.857517161053937,-14.796521553503496,8.124933710023967,-29.974200384179746,10.639245292916605,4.758395377195298,-0.9854979038977909,-6.171008506899171,-9.063612951429963,-2.23173230087441,-6.4692527899732974,-15.69663354031364,-1.6089243034924037,-3.082672992157388,-13.512037480865393
-5.139445755210529,17.432587156637865,-16.743737460053683,-8.377126100199234,-26.2043254028857,18.030526409819227,-39.56004063441276,1.2805321858831693,15.649177573234303,-9.119889318026509,-7.440906719509178,-11.916103694622542,-7.0658072764720625,-7.575521404688782,-21.9122318301985,-9.899746930148225,-8.878191786727271,-21.645656793314597
-13.704702282908148,5.843208124532203,-5.348052109662682,-11.339168304897965,-10.76013580998077,3.3288166589844863,-38.11708122664816,-2.9981047850308116,2.9055551556376433,-6.121840728732151,-6.855720187003977,-14.476708812937536,2.551470945765832,-13.370432798942135,-23.149245447764148,-14.57829786164676,-15.260531560541535,-20.89314477534147
-12.115594289670266,-3.3035864889661832,-9.579066886641192,-7.075514511001814,-19.246064431267936,11.383895192390433,-35.50887622114713,-5.516980997707305,3.9304187766420426,-13.67140035838062,-8.712413236588663,-13.620367358052695,-0.2358066208267342,-7.34984955162644,-22.63040999029654,-18.671960294894625,-16.663215165400704,-14.281912415250325
-16.973977070723407,7.179958285108737,-15.471753686371635,-1.2502999707883165,-18.751537059386468,10.457081628469917,-22.848688959663427,-6.27604992700015,-2.3703265658619763,-6.865873752143629,-4.4171282829471075,-12.862743841923404,-4.392344513112803,0.03683020651239888,-13.226739229622453,-19.83694078127008,-8.301026620039906,-3.0815308256350558
-19.100061337355122,6.336331252202787,-5.252431712616566,0.6676562120964062,6.055629887947017,-8.04542163366963,-11.367272626749724,-3.3221115327232615,-11.406789506939795,2.9664125933577026,-0.8059304742172726,-8.102198197975618,2.972651067233979,0.19570614919733975,-1.9696178859065512,-17.877915235633576,-1.209303080646149,2.942206048678818
-18.982172834671413,-5.8344754384996556,8.773996663308816,3.463598298617196,-6.251361124444004,-0.8611538399790355,-6.728884585999847,5.493348390966757,-14.585110603393764,-1.3623315793896635,4.660258296224276,-1.291869424789347,-3.4342012067910863,-3.6505347372288557,2.0587581466761478,-3.322073362025919,-1.8334671435402785,6.816668784931954
-18.768817601074296,0.8437717803069839,4.634513558780089,3.3288900486352997,-18.1720142100856,10.036973666518762,-9.031286377859189,13.724961575410862,-15.420989435413166,-2.664371345420168,6.414923897014734,1.7087946703623373,-5.253271554971005,-5.935418934044376,1.0068344532657516,6.740490689820518,-3.4351457065362467,6.100395079358631
-21.38976226177672,3.030864591024509,7.427132566965309,3.0956221637088897,-21.21017961519259,10.195693824079719,-8.704118634968797,19.419614428348996,-10.887056220702426,-8.557037115879307,6.020567412481901,5.587382983916667,-7.269813348980961,-11.83482355605711,2.101260462788394,16.7043864446027,-7.576872794160328,2.4535482838501097
-20.399629013261478,-23.297009797664515,37.65995419029466,-0.7518671697834405,-15.365928263931048,9.478515131562673,-11.411624821062158,11.737337608390519,-9.772526943899233,-7.419083830307519,6.797529427654439,3.6055295560316676,-5.577539831867326,-9.4345204001752,0.2638116962454351,9.18654819084241,-7.715589209765979,-1.0964993140141406
-21.169625196604578,8.091924142626002,4.99954453808464,-7.529956363522804,-19.389614450390887,12.768399583485872,-19.400022869951258,2.397098325593733,-11.393815992457146,-11.262438873350224,9.136418495368797,-2.088276509084702,-6.035937010034454,-9.281560691208913,-7.923553400249511,-0.3830883096846911,-7.855270898453432,-5.819315414201587
-17.156712411340493,9.598664190889941,-0.02539490705711067,-2.394650950708955,-11.99191625610073,8.248833832019319,-15.481635810531508,-1.5697091786305846,-6.27814032639902,-8.85648680523889,6.005855085042976,-0.8493220317287875,-0.7347482867613788,-8.153253481808331,-7.323904418211177,-4.582521226378022,-8.777187585210763,-7.710949165371855
-18.029035647498247,2.219614852321199,9.791948881702893,0.396037514557559,1.1629547298433103,0.998091775606559,-14.2075476101143,2.5713673098776466,-11.222648179290644,-2.0567486923485974,4.241858929634747,3.4161035429803146,-2.467156739405368,-4.487088587899745,-3.6014082699198227,1.0805198025223532,-4.03593542852915,-7.3573629139367185
-10.505169466244517,5.290998735542335,5.447204656949804,4.943753146315212,4.156726986463308,-0.19456037688187422,-10.49963187520018,1.9295401039509894,0.23789192739498866,-3.16812312419293,4.918643255948458,3.188375013304336,2.145930138116066,0.3497127941229543,-2.5178882871006723,-4.585679806722302,-4.276214315932967,-4.172625531845978
-12.944794717761301,5.433695183290174,6.862529548992304,6.365628469006082,-0.7645285488103628,0.8622932750588408,-12.854183515805033,-0.370110597392749,-4.416562736171448,7.243257524308844,2.6650106032458964,0.22535309203568854,4.803587757587321,-0.9671918537852715,-5.049937223245532,-11.912988067422418,1.634952708855157,-4.9927935461041475
-12.652429355818448,4.89382163712116,10.717539083957288,2.5132132154229634,-9.889872034822265,11.102418201981685,-18.24387954995362,1.0436219142732197,6.9433699111407865,-1.1941859262355567,5.879505032707441,-6.156544437038198,7.654270932366135,0.15606742195600543,-8.560810145588283,-15.237239677171845,1.6856589785173064,-2.2005773463084943
-6.8936792828241895,7.382361314352043,-1.542758142657382,3.3476173619964307,1.3903955697962687,-4.923881205317672,-16.80535065344381,6.463740329437096,4.043776843496872,0.9145049727919012,3.136149521358793,-5.800890086889274,4.252554540896195,0.7897480692580423,-6.702766706266257,-12.214631863333533,2.2236537570516273,1.8602237808600623
-8.657045007418855,-0.9680961208226755,11.097868464052272,-4.2172753383655355,-14.971382537927822,7.76476493936914,-12.542622095466236,10.616754603364095,7.5880862319597036,-3.813768196582476,1.4662800991085456,-7.9851461371491945,1.043836348713441,-1.8982338915393067,-5.5305982776998235,-2.7474892700530003,-0.36440240468834606,1.3301325002225175
-6.418932699024577,-8.926922117398917,9.08801438421631,-7.3882795632216975,-27.724775341734517,23.289115801221882,-10.143318849362796,14.967557197703012,-0.4903957398931498,0.7345016722956741,-4.208326811278205,-9.681899116661743,6.621985585696347,-3.610946576153924,-6.704496662564713,4.082036460931558,-3.8323837705001753,-2.5213128977447385
-12.484235550376766,23.838518108115075,-20.560819098115843,-4.407534209474542,2.193270217998389,-11.671896331455205,-1.5018974862071772,10.726976281817489,1.0000494991281323,-10.245770778097011,-4.31723359213616,-0.051115878855379826,4.580491180981852,-10.110204499446766,-2.02122066130838,7.2973866620080425,-11.402997278820154,-6.862049685915897
-12.790255341826084,-0.32952780543912885,1.254118725535859,0.23272685653305292,-18.871058812384803,6.594305064751099,-1.9506678017569143,10.785856745785166,-2.882222474382308,-12.437826964860964,-2.180824145981544,5.867936019920492,-1.0766890780560123,-8.505192973755229,-3.3950223113821645,9.535339559668774,-13.21281192056686,-5.637309119411398
-15.344941547907005,5.874947276518787,-1.1519390954466902,-2.159012675839095,-17.186205952936263,5.821046866028651,-7.58336041309483,11.042595095514905,-1.3948695650907688,-13.947277385002653,2.2985387113667075,0.26266219594510964,0.002156869440756992,-8.9523231483926,-4.185181809952829,5.229423684497523,-13.65642598337851,-4.608908418794576
-10.773164321325188,-4.619100267299689,5.912909891672867,-6.309211914282736,-19.803399714190913,4.661010093014224,-13.224150982738077,8.958110071783569,-4.7919629398387285,-6.570889292211936,-0.15665070424864003,-4.269063675042513,-4.390195727427057,-8.814841380456878,-6.2472015509638315,0.04380812679653534,-12.05023451145048,-6.99956297244421
-12.747018913255413,-2.123730630177401,1.0616031353175943,-6.260725441644541,-28.2851956035902,16.68867134728335,-32.74047020731238,6.778548069874849,-4.284313565566955,-5.543286941685002,-1.3431624043243857,-8.899108938289855,-3.999690231245603,-10.338880203587742,-10.850636311691105,-12.369239647140393,-13.765411691257096,-6.949817751223065
-11.98903007358751,0.6655364574340676,-6.916679793117444,-5.724523790586191,-13.138984947363664,4.208191719828466,-36.444392430493885,3.1367174848812667,-6.122023513210422,-4.614391136822611,-2.237593782892461,-10.990688767037287,-4.1975072746446,-9.032187257028193,-10.378185361512035,-18.630588279883895,-11.08699379702264,-4.947970255660404
-9.378125966404781,-26.525212272710764,17.134830921654334,-1.6731931211936768,-10.400499902022457,3.1576664244785526,-26.67972655628687,3.403809165525775,-4.44563419534488,-2.6123245594128646,-7.234562945706835,-6.14917873829518,-8.792302500688407,-5.383054109876409,-6.001743449117572,-10.341650808543998,-9.58146904369813,-5.290969278914029
-10.773777953655403,-4.397905962541775,-4.910073073082915,1.108061476277312,-3.2726324244913094,2.697131204321252,-11.356768522726597,2.8922651108070854,-7.067769760099594,-5.396566586174462,-6.568315482974307,0.05895631614160379,-2.256497863338952,-3.688423388965141,0.5208493452606078,-3.6159327249679825,-7.7839676562390405,-4.560801578282483
-1.039041731698152,11.577844546677136,-22.269382766611066,1.3497138145458942,-8.650192057003684,6.439965397895967,-8.4445574056939,2.0903859332139776,-5.199237646497664,-3.884961772319576,-6.781939391148503,5.485272672776533,-7.5396637964981945,-2.7764034769352692,-2.8223086895019893,4.573977831425383,-6.671062683664454,-3.245762960855523
-0.09610018661491004,-0.8639402468769564,-7.598946414198669,3.4463868689365835,0.22502423862893295,1.4953883153709846,-5.247597843619271,2.463048035069513,-8.312841813632735,1.2388718776067016,-5.141037156150375,7.102407113320442,-7.844669370833009,1.649945711853599,2.719069936084267,2.4115164684223043,-1.2622043697916796,-2.127121908591989
3.676315363332133,7.984514328430866,-6.504943801220277,4.6636887957717885,7.434789772487871,4.367597104865887,-1.7658967252912845,9.772066776217738,-5.666233126871399,2.455275097401895,2.065366333912058,10.96516638177101,-2.2925941822322393,7.344496444166511,3.3752462747318823,11.381408391690464,-1.9091075278548333,5.045210920978205
3.3445044585349617,0.5249629502541657,8.063804288219147,0.802361837378351,15.908824387448668,-6.135100721080697,6.395141266173546,7.025002459248066,1.1780631736278373,-7.0718066671137345,7.805894970013524,10.823482057759195,-1.235156835728917,7.959496657697157,7.447131652494416,9.022395917402708,-0.701488958281181,6.747616687804776
0.2756760182385527,0.6835362736949081,6.809961330347139,3.7766755246246326,14.514136006034136,-4.5239998030956095,9.958031658331855,0.6672714198556609,-5.065373435503192,0.78304351337923,6.611696677070318,9.216482391860284,-1.1566757415469162,6.522338087000961,11.419051813476438,3.8307251222706693,0.016872404487006776,2.78477491899986
2.868397701123941,-5.3095230492165975,8.874430212485713,4.016196701662542,9.500812930250447,-2.2250224912877865,6.6766510294937405,-6.469047985742444,-3.204812988332902,3.1679027120407275,3.5609555043419236,6.925456337908534,-1.5688581716693513,0.7868952304986383,3.767398759084694,4.497957664874322,-0.535277977877465,-1.569800910638782
0.9662679718036475,-3.489174475548036,13.475935118183045,1.4232931287968613,-1.8655660184046763,5.64474953257261,10.027775812615182,-2.3720514158057426,-2.4200818328117073,0.5710483738382948,6.759245633311451,7.4661095688014765,-1.8857525884276667,1.6908382258529722,4.023726778810714,7.606095494814853,1.841350630403424,-0.6519658762204639
-1.4267409693582422,-5.281390206190918,15.926890893822154,2.638716738099558,2.9739352697153265,0.43271728001875154,7.022938488372052,-3.350580749357107,0.9998162448130712,-2.9059052102951344,7.417352389154258,6.346213032605693,2.189587727275825,4.0583107985432845,3.5941619028517326,-2.7630501398492564,3.3381147738185852,5.14764553825775
-5.28720026986547,15.583744944129606,-9.066070529202822,-0.3454414768713301,3.5111920768466547,-3.505404002305177,-8.197309872291694,2.2166342404197215,-4.5663868866537864,3.577040763290972,4.168049536370627,-2.293670744911126,1.3796846577834119,1.6392222342326006,-3.1854367556888485,-5.808357693586081,4.736285256676334,3.8171282424562474
-12.079968395098314,-2.515820271880891,6.466824855536425,1.5530140647019683,-7.968753800209781,4.182131656261486,-12.390408140736799,3.294266500302382,-14.138142684990715,14.160411960113954,-4.160573489174391,-2.437645532781586,1.0557221351115773,-2.441374434841436,-4.498473741236765,-6.998637743345525,5.645240448491624,-0.8348684905339785
2.4140832120053215,0.3817490636979903,-3.491068183861192,6.283296611796645,-8.613985361928355,5.4286659173963105,-12.685348938560775,7.499615781542273,4.706923213165782,-0.35546543903875527,-4.580054737017695,5.816657666438909,-1.419049584859386,-3.105270688460709,-3.3723292625323564,-0.47440306562857604,3.135257896302541,0.27382303204162994
-0.8681311534206628,5.623806749884111,-3.001713951639097,4.860919888928978,-4.283958687669713,3.7498990868322135,-10.8399458110486,8.387265699383747,0.5031872253887686,0.8503348183223194,-5.09834618821869,10.359705678171839,3.623496013101075,-4.942373602839947,-5.764114916771396,4.096252794076351,-0.5475242292171751,-1.8413109788936315
0.9253113809585045,0.41717068808569224,5.6887470669953295,2.5594276882728506,-13.33831809084035,6.274865931262417,-13.494896008031855,12.890908718981294,-2.4325670590886004,-1.6560863040744902,0.43697269826376095,13.24233748912408,-5.3013326714485185,-7.464387097828498,-0.9314679434536091,6.029748264169457,-7.258592470978845,-3.664593138887979
-3.045585350750967,1.7542692178043455,9.103534474788399,-0.035207734479545394,-16.14784448677643,8.706643700276535,-3.5600626919730587,9.48692287847247,-9.764481459885822,3.746533884128061,6.557051591902411,7.237906591131457,-6.708820602413407,-0.12426719869435843,2.9223736023573395,2.3963735988161456,-2.6422481601997942,-0.31313727399202396
-1.7454824333728176,13.150762237312469,4.99650818518314,-5.852692794857236,-26.091632495354727,26.475171235174642,3.8276398912757372,3.3511582492056933,-16.121372357695794,21.64810113172926,7.793040369644158,-2.770673949496665,0.08464956877220686,8.288798172316145,2.2817439404101147,-3.0928548011320505,3.7310613627651072,-1.845691032465457
10.880415571315009,6.578859280853541,9.67649892432699,-6.006147393799948,35.347159172366716,-31.43655128428887,11.305009290528538,12.257311862220046,6.719855851076087,6.149469870774727,10.883306635979155,-2.6230059752174255,1.2116928581003128,5.469943088056267,7.986665815565724,12.804627279168066,4.829990301809319,2.0894660365827447
4.2652527997300425,0.007565192849950275,11.619881658042504,-2.448700646044425,0.9785000273688205,-3.79558280202623,13.598569118980983,8.763545560313283,5.145113312580341,-0.5612235383893021,11.433235833477877,-2.5731266031723283,-4.890199527405197,8.802255253337265,7.439305040941495,8.193671137826055,7.295276756422089,7.000078283886818
3.604744238381107,-15.645309490706259,21.568996277710664,-0.25852942601783657,7.425591536224914,-13.260034739419304,6.606738814005023,4.686431234256057,-0.23980655666170847,0.44177869608346043,10.419389331669596,-1.3514598718035598,-10.017761448385407,4.516003888934106,8.25698031771851,2.7035040868610793,8.58783150510904,11.909569097016753
-0.6715494034296956,4.542775779109482,12.667952892005761,-0.21687013498161267,-24.023679484033412,20.542421344553496,9.861113797682584,3.5416313930769014,1.8934050971309837,0.1739577193490498,13.310584773328276,0.9443615428173564,-2.8426781782094217,5.209048665217528,6.728713149322223,0.8264034150096982,9.00064001940757,11.642079420968015
8.917127796715874,16.91879096749748,-6.782351770036932,0.508377099688424,-2.0592983037898165,2.786126201511184,11.154526748824136,-3.753041382511178,6.95484622155084,-6.735868641461572,12.001214158688699,7.341752355010268,-3.091795468070506,3.5570708695830313,11.643716415910166,-3.9806785533290148,5.408667073392637,10.396893630453032
7.272758238629075,16.502170862685404,-6.605687015513905,4.261023320089526,27.224311736246058,-20.922750972174633,10.58468833850678,5.5566473437610435,-12.204322484918844,14.673764407370133,6.4912621686752505,12.469561314688645,-5.589234465055591,0.9272912616261846,14.017494913681382,13.087344736145527,6.405806445258664,9.052933306890003
10.60654956297968,8.566412702108089,7.045498693763081,2.3495547842375872,11.384976464965902,-1.6576796847174116,8.34696964777779,12.525075560519824,4.084791369503156,2.3901859833279637,3.6167555579749644,18.47628283220915,-3.8895648444731132,-0.2388336622109235,7.599970768364139,27.127769726923177,2.7145856369439683,5.461730456153228
8.664462980399994,6.099974937494681,0.7722475788319239,2.3913001866737993,7.357192919427057,-1.9196128066096012,-3.6641635470758906,2.89419139666788,5.13783451649244,-6.281352800491299,0.7409205688907583,18.330583398437025,-4.535834889811292,-9.218775630708855,2.8405402616192994,15.581678221366394,-1.3680418180482017,0.5998651368079213
7.794276659891656,3.1457141882674104,5.141421837852562,-4.98885874669447,-4.097576942948525,10.12787190641059,-9.335123369236815,4.691743097799911,0.13464907647017643,0.9640179612626656,0.598159451059652,9.395727450454928,-4.402975801148777,-7.84818080592835,-5.534295906363785,19.17236720552111,-1.0568335491111145,-2.1146387196592022
9.265567407083832,3.902891816411331,5.113719215099402,-6.216471559222585,0.3609057428456506,2.2577173116542255,-0.16962318657732567,2.0971522480140568,10.462295357769374,1.1767242454986615,-1.3037979969306952,1.7304852729666524,-2.123757312981586,-3.939653643428951,-0.8250449330435425,11.434608005444668,2.378673046879158,-1.998173533926108
-0.886694319221931,1.9260752918880615,2.251653474834095,-4.709534797768675,-7.978693465374176,9.431389629587906,3.3242772379397394,3.0206699715183998,-0.4032055755819144,6.173347774194898,-1.9375756466381855,-5.2510669023094705,-1.995097322268487,1.8232170094517244,2.02667874108357,5.942844945458001,1.1258720897804513,-2.859387398678755
-0.20119988093564967,-6.691066872652176,8.957747739385578,-1.249286262806076,6.040455207917438,0.5937208987151585,3.978720400151886,2.67703988727823,0.5464789656741686,4.723243846192474,2.2124916902486422,-6.6660197791880424,3.9909622738592887,5.631795192510566,2.9232377294013654,0.7439411983433823,1.7278455908969494,0.5752418032162046
-2.935949830834945,-3.1982706367668117,6.774679457105816,2.797089548090946,0.7185421956607367,5.627971161515299,2.770354038060301,11.124980855348031,-0.26305973991798925,4.736685071616804,5.677557488388679,-6.713634282555097,5.189751930341355,5.239969352202221,3.3295190310312295,6.482607937060397,5.3564999301282334,3.520489333685016
1.1631491488829226,14.357596568237689,-17.090724777386658,7.624931703683471,-2.0690511125833204,4.611951153527729,0.4805126536557225,7.95399558042871,7.715232025740139,-2.6731870039759205,1.5239095194779497,-0.5110018978854893,6.679498959309479,2.3079380979640094,4.808067919718051,-2.818096701912923,3.320309795162194,0.01923795403494566
-5.677579953707739,-4.90317025552964,3.182842669687963,7.3747990884721535,-10.623182924450289,10.436470468396035,1.9921580190589125,9.082264895993356,2.996669830580423,-3.541319407134745,-0.38503272143834577,0.9065738468565501,6.995362755210622,1.6209482747894977,1.7924151650667124,0.478984263979906,4.506143146652972,-2.9948074930830275
-4.707818254350895,-4.04613112760936,7.731178110152501,9.371045190870369,10.798931440153588,-9.418512284750847,0.5669829547237093,6.599479869482037,3.9409278251963045,-1.0904211968740996,1.7085582695047243,3.7892090211787472,2.524033078843247,1.3235209438538762,3.364753075729732,1.334574881229329,2.566260518481373,-1.3223585037843104
-5.693305911446624,-1.8215947932418342,7.687255182618995,8.340174688585584,-5.967756782273379,9.012806950086233,-8.287189629933213,9.294803992469253,-4.979555070623531,2.0427452371503962,2.4334954277168666,9.015843572217399,0.10157851426551279,-2.881265796355865,0.14996158528477377,6.682390227201168,1.8952738824377204,-3.3619746648765454
-3.360490031238913,-5.553914502596663,16.234860323664837,3.696263436848193,4.800467417982105,-0.5791949162558403,-5.722334925556387,9.355583827681828,3.5794085733255407,-4.688859221182117,3.840580422504997,8.285589451976023,4.415597970965358,-3.376089014116736,0.448972097185782,6.36604034986302,0.1494111518781065,-2.082292232182377
-2.4945638915877866,8.780690994042864,-10.474340005911378,2.373032917784988,-20.373869131661174,20.302449135508834,-12.24649545143846,6.293495379193977,2.9572764724058667,-3.31621334670505,-6.7657033324564875,5.309460221033358,0.5244851798708261,-3.871923101996769,-5.5039654120546775,2.826983265828561,-0.7181591934827795,-6.2725009736160855
-6.220538134379755,13.54505834429861,-13.259763221739062,0.8548260416845213,-10.39587169274247,8.277844654058034,-5.2029906986838785,4.405442886802392,3.0175017285492913,-3.214462936748607,-10.537421831043558,5.653966069058207,7.17855479059568,-10.032896728378493,-3.353138658740778,3.2919057460015,-4.223102132012073,-6.1668196395636725
-12.975850831233522,-1.8078713323511728,-3.5473725701465373,2.8526580999913533,-19.270208667810742,15.398544268106075,-4.8068862545873365,-0.5078937931798535,-9.130715441074699,0.4992764831707306,-12.55278685147393,5.705789175591059,-1.8920961984992282,-10.042402555464246,-3.3525853873932516,6.100639693927784,-4.212966389153104,-6.8434430904527215
-6.06098929973355,-17.35594202849043,7.041553524143245,5.5344753942641916,-2.95317540813792,3.3826892293169504,-0.12042684108960344,-4.247270102899229,-5.166607919906892,-0.28058984481752036,-12.225860673203087,6.83215602806602,0.363755862105954,-8.685648554616854,-5.599937888024883,9.983647457767994,-6.54720275908773,-5.47028884556339
-0.7105208628831603,-0.5791492763129642,-4.540218646903994,3.9197535315187144,-2.2656415215309345,2.894783596757488,5.340798975307756,-0.17199888969673616,3.874522686499219,1.8679242037291308,-8.287100804877543,0.6345186600248729,-0.4095466785005164,-5.864955184366594,-0.23173848391561513,12.304182507661412,-1.9483123576428925,-1.3637443197598034
2.1966759626036927,12.291462334445262,-15.538442343078474,3.2820304116318613,-3.0471670236811406,2.2158704987093056,14.701930587754685,3.6122873713317762,-2.0271367738723884,9.581575680646763,-4.642824375873511,-0.6798881653394213,-2.649449326786945,3.302586859049142,5.330050961363274,11.499732940529391,5.189120024361628,6.452776676346609
0.902803989327384,5.923604620983673,2.758251657055361,8.015923842127195,9.448636372681793,-10.37300862554098,25.326302285895643,2.3203185447712915,-0.7032551748680409,8.895306002577929,4.371110639240438,5.037422642504406,-2.351953600580814,5.144916736555903,10.401853109315711,13.52743233255634,9.103301165509471,11.826845681439682
-7.131194916511605,1.9972729471938047,14.118835724225196,9.820544972967213,-14.095318746691326,15.51950872480658,12.506600588716122,4.936565071517297,-6.3141801922506815,7.719390560708035,6.9381114151992405,10.462136944181154,-7.231989366075712,2.6894476436242085,5.608552195911787,17.80134516492698,8.32937832865326,11.828740033891666
-3.9362525008632403,-2.514945526468651,17.859699989540417,3.9106831523713748,-9.810797178391104,9.775132074840174,11.204392679653353,4.9179159692768275,-4.992487560898331,10.25311080080725,6.671508715148822,3.387053159487319,0.09355317717547607,0.2331438556172185,1.3995541443431536,14.360392368281225,6.578358909742048,5.970180947431213
-4.356300253987104,18.26622751195478,-2.035030259240452,3.9584401622411844,5.212171469283472,1.5934910494167287,-2.6040279197721965,2.8502745876305307,1.1133781133541278,-0.3006657831838011,6.403372040271944,8.61725279049331,2.1439710329952906,-3.0052323934446497,-0.9555622627352811,8.86873280978028,0.23691968901356814,4.2122682011436865
-11.223366703788313,-19.15659849111941,32.5608321283174,7.229416984237097,2.945892421630637,-0.3339117531847755,2.527230038127378,-3.707846322733671,-1.2780096492927924,-1.3830022434764986,2.2273874950493884,9.843908315335849,-1.3736761160412607,0.005700775681147352,-2.628661319074153,5.4280010433102905,1.4146334942126102,-3.1131038227590317
-12.134872009409605,4.358996809059315,0.3563693208021226,2.2976752677019396,-8.113332590134114,7.410906725787318,-3.4803172119164882,-7.62747608774033,-7.576710391994418,-3.736250840624835,0.8819355469699486,5.309195073774243,-1.2795273985541114,-3.5271955834968507,-4.205660455477716,-2.797835726439052,-0.04489172185439992,-4.579968499082506
-12.852575108405095,-6.207990236569641,0.7671565979512522,4.495496998152219,-8.238560060453107,6.468251948528935,-3.927094686126228,-5.5882964643916555,-9.384131312453476,-0.5243704295179193,-5.152632692833337,1.2632226859066167,1.5475311987964124,-6.57253875870308,-4.807610583587174,-1.4530811189128308,-0.33299129760806223,-5.4618323908299615
-13.66940062484893,-4.372497665002597,-5.758194562574272,4.154782222805018,-6.902509162913493,6.310883798504138,-9.164720248621956,-4.328736965606062,-3.4775393676378505,0.8306502569430911,-13.33721815842829,-3.6612033605225935,5.837983085961646,-8.34904100832821,-5.997005706983309,-5.577018949252528,-2.1840692994049182,-6.246972416298521
-12.43682883784037,-2.830053867098615,-17.6571636493814,1.3732045400742452,-15.824025508870928,14.94669456713998,-13.821914483130058,-3.262897072475562,-11.243951574524068,8.239087871229959,-23.964795511124002,-4.581182599850901,5.6347404844047855,-12.177039291583927,-5.625345298812315,-5.7944983913104915,-5.012166775044112,-7.61898059460537
-8.471205313988087,-2.361942747889466,-21.355327658966285,2.693847935749681,-19.377785923969036,6.496339257550332,-8.132798602803009,0.5389090605526556,-13.444764611958545,1.290474610388945,-17.79679063285891,0.456452849313461,-4.238022143693667,-12.978304545300752,-3.4972832372490776,0.23827371760876392,-9.696191028345616,-5.573877038342129
-4.409237999684379,-19.862975128683516,17.522835535022413,-0.6724692663585108,-17.46604641000856,9.573490441870927,-4.792773043899094,3.951586994740825,-4.025169653529082,-4.194635550521365,-5.282581644131569,6.080539988459099,-1.6119627955937061,-9.580916957897948,-2.347205215414713,4.806342951644528,-7.935221952434223,-3.236696511300801
-3.8642114898015754,10.585802030322256,-1.805463803957216,-0.6201401564585618,-16.631787836262024,9.92007137655455,-3.606415593044251,8.146982502336735,-4.274524706011419,2.0378203643618726,1.5659302646043738,4.966760657133097,-2.7958887990603665,-7.4536827120391695,-3.444630444700726,11.5230524054191,-2.1706910276141094,-2.658238259063559
-2.34381722866085,7.928443098847257,5.036060394522012,-3.5945615610549755,-24.589882539273134,19.450278316399974,-1.253255460434973,4.3358515470040615,-6.282523089197157,8.854860431816327,2.748746717891102,1.705040643128119,1.0970897406837925,-2.104318182149956,-4.543399122298802,3.4936194274945214,3.8864194611492726,-3.7408308708802664
-4.144942589234253,-1.1745099266495291,8.35945423657198,-1.9784161798072604,-4.230298768936066,-4.0240818415226585,-0.07696995292231357,-2.403651080879005,-4.873274483096868,6.100080324196093,3.8323613100917626,-3.9975816103232127,2.2543894035970498,2.4632371562005213,-7.596633913387313,-7.855994290636868,6.525127033924706,-5.605540645933845
-7.412036668016018,-6.9573038254602935,9.824898945659292,1.0056036812795588,0.7940454376268331,-7.084275884696005,0.7038120771288856,-8.751210144117126,-1.3162990762523505,0.21889173507064255,1.7893872888610245,-4.230817814228091,-0.20287344960974218,3.1239637551372548,-7.819073067658053,-9.439645751893616,3.2063418849448646,-5.224963236529913
-11.363783092295057,2.396627449474716,1.9127487210662157,-1.1855578976019254,-13.911355171792783,10.171986564857875,7.9252423742904305,-9.335698050500518,-3.9124740306723726,1.3677006852673257,4.139474626312013,-9.834666100272512,3.881742390335986,6.127985361512163,-2.378609304857957,-12.780942730102094,5.9419772694720265,-2.59908388147036
0.11340028506585043,-8.56249598325205,4.545183307458862,4.338933003850925,5.365350721621276,-6.455393347426707,11.333368805523929,-9.821311989064824,13.022217351525057,-2.660709088903595,1.9957737452429969,-11.922261394748578,3.375290977512276,10.205779948029631,0.7168558181138756,-13.875912552969147,9.067895246708222,0.6119309489172369
-5.4028007046680955,-4.775565311156658,0.43678404185042796,4.785924203393818,15.166564124964053,-17.903373796225143,12.881457340888677,-1.0282727522348711,1.7331714499973971,1.0244855776703727,2.7802784708485104,-10.493593269102705,2.965380446166388,10.572147034917872,3.51816828133677,-7.939320844995466,11.900502381899681,2.0643109463510942
-7.599520062975267,-2.942073667551377,-5.23658690162411,4.354709858663848,0.8437204502794309,-6.202985936427833,10.421149390855629,-4.734304821550751,-8.579915885138442,7.149768403394368,-6.983772956393051,-3.009550335353928,3.0426785252575055,5.664591736869527,4.267522485954999,-12.647213664892806,8.287371542823223,-1.6599490042823453
-4.132915526663486,-0.9135699979073599,-13.74447757236976,2.5570121586940378,5.854611494231946,-6.315757147056539,9.128417345156432,0.4475884356368516,0.5402999974055724,-2.3515406262880933,-16.163390969877767,1.7406806605113097,2.630644726426042,6.323152315217104,0.035220221739844515,0.1258428646183649,5.748158960157804,-3.7247909773017724
-0.8623945971366851,9.610834734461438,-33.192477183775075,3.8850976008183107,-6.519974659329746,4.219535365191894,4.413459993448444,2.99374523489153,4.191127319402273,-11.561227726032953,-20.656942476107968,7.46810343710595,2.2176047924960325,1.4148756299847776,-0.09653442993105088,1.5708199416849515,-1.674247536014541,-9.110743286184661
-2.280156051009235,-19.025855168075108,-0.39602398363674995,2.3818540527368137,-11.865503718239257,9.093990567074659,0.18269987843649016,-7.154630060086534,-3.1938929821940203,-7.979099777321595,-17.437028702055212,9.289840311587602,-0.5401898835382485,-4.470295184086696,-1.4988826889969995,-3.234075576160169,-6.557849981299775,-9.809854497284803
-0.18289212909464414,-2.5450280987098597,-5.493207557951168,-1.6597356789817868,-3.2481760534002593,0.8855608237353483,0.24490211250035632,-4.8018888133477144,4.65520345791926,-8.206969979090463,-7.870848358556179,1.5417514149927176,2.2675749057091497,-7.328363337373068,-3.7811588830169587,1.9223453842010867,-3.531463221347753,-6.798684971048652
-2.0901909624817003,5.146225640840425,-10.202188517979803,-8.044346952605505,-15.238730833356428,3.5203321680837947,-0.966310985611575,-12.507017199033694,-4.195631999178379,-4.52987398723977,-2.2124536888109256,-4.252541116992986,-4.39835547921817,-7.940561227814915,-4.404226847427935,-8.448583295424443,-3.1421140140149104,-6.81560144891243
5.18180045324508,-5.913200790461839,7.547688363944187,-10.42421791688815,-6.3325269590415925,-0.0918611038498014,3.0922428901158927,-11.617434900076056,14.297273929793057,-7.787817832756556,1.4913213964503989,-11.608707383641395,1.8256788673451314,-0.15442164135516956,-6.395441412033353,-10.225395886775756,-2.3624035105157706,-0.5831010155258589
6.105559701588721,-5.44942488884756,-0.1935206537457379,-9.971233125608169,-11.393275484362254,4.502264529288146,-5.157715608057373,-4.672291023649832,2.222913893279201,1.941380849643168,-0.17753191318001882,-13.495381796347203,-0.3496719329218489,-1.2553349533175466,-3.797645136538921,-11.318365563970621,-0.8993498625028769,4.086214979472551
4.880428008063044,-26.080148383609494,14.231169001331308,-5.9041227405299495,-24.268436035233105,12.810390202036173,-4.133711921149956,0.9063785333662946,5.285142873844062,-3.2723879903338142,0.30064526733931807,-15.18607426558513,-0.5726499092279286,-1.2821820155768449,-4.911710480774226,-7.918836815369237,1.344713016981876,5.141552098270209
5.901062167140134,10.809093438209143,-23.59343254624826,-1.347926937952645,-14.781663662132136,6.082166229170901,1.3791387336889933,3.8489757496661157,2.1946061433227184,-3.604599223625362,-2.738282304105198,-4.082928494432651,-0.503399097786483,-2.8716921531328987,0.7117763440289333,-0.8080680426833213,-1.4896712196877684,4.536083476471545
10.339413593154891,-9.920190715832724,4.986837816546562,-7.142647774083839,-12.52314995064984,5.0209692236427745,8.2559027329841,5.327346382780774,6.7210776868154,-8.918680473595051,-2.5559160887660144,3.016931795343247,-4.634137982878796,2.9606763700095406,3.1117615604261113,4.642768441233324,-2.1758220328758897,2.1721699190296997
7.160216184579038,-4.575332781197602,-7.060893516096933,-4.245019232923529,3.3083077803041085,-5.803188727823567,6.6332623447204195,2.802342368729856,-6.624080063112311,-2.7104692786720976,-3.4491814088943022,4.062701405053888,-9.937439056440544,3.1288159823608277,4.827382231866433,8.92196460817651,0.5558186718755975,1.8584820340664532
8.766061433255485,2.429217410052202,-17.450814728315333,-1.8348626113217867,10.446849087730573,-9.300268702766783,9.695126420802545,-1.6752702372779682,-1.1215242415670348,-1.777092320456067,-9.324371860431768,4.132589926141099,-6.549833013867352,5.640690925693673,2.6359688370025216,7.439609819691984,2.7989484594449197,3.2044077875123675
11.25069814815018,-1.895033938804583,-16.710113935581195,2.4316137141389405,16.314566728394645,-12.599351918916714,6.699257341466292,-4.296885695315507,0.6698396968523426,-0.6497112890027799,-14.224348529205534,9.281384109276392,-3.944083127074375,2.9766846826551117,5.2290962155544625,1.8558886845260283,-0.4269705546665714,0.35050186812928974
6.801565415113414,-9.247192833778008,-13.72563364014218,3.9645013967683504,9.97389843101579,-3.297972107955628,-3.5261241643789583,-8.675886123890368,-2.9101373871250154,-4.308865834483187,-11.117736614318467,6.129980173906681,-3.0967293221239878,-1.8357834258293548,-4.287988663565526,3.6944174463422463,-4.336702554529899,0.5234563012428382
5.282153131625773,-4.295007549630624,-14.552141119599208,5.009933474944582,8.22208016396066,-0.3417980853553555,-2.328276350416363,-6.413751182681708,-9.61529512111306,4.042580672934205,-10.063265106736656,7.08091749227576,1.9493879600381192,0.6761166546555106,-1.5984724651610405,-1.8887776039927848,-0.6293333982267768,-0.2806768580812615
3.4698138289856715,-33.62123316791048,11.474907399440376,6.8374651568930975,3.6372283058911474,-1.875400475342282,0.03885117283330075,-5.32314494393722,-6.554779571491011,1.259749369265553,-11.74451922676483,5.2005026464199275,-0.9152537314253573,-0.7182260650601844,-3.5971081824953943,1.7081220384584774,1.8082884670505284,-1.8665625950977545
4.4896529274719725,-9.529231639624747,-9.083094543422732,5.247817770944944,4.032066588635084,-2.6253294158748552,3.2823979685375484,-5.990058231710961,5.783152661617084,-4.942392508834783,-7.762913662043102,-1.9527019753475683,5.4971450901591945,-2.2101307452167616,-4.033764403457744,-0.5541730318652602,3.8550882774204815,-8.3358063394177
3.263525424435519,13.097334916792974,-28.66681262866514,-0.2472936637188088,-5.534934888363166,6.68583192131904,-1.9726665983707636,-6.65669560276469,-1.7034730391595632,0.18247977582698915,-3.5872615201126616,-7.444991167686849,2.338677676083179,-2.1393869999276474,-4.470928952748499,-3.20682689155399,4.241520649390326,-5.33270052486912
3.502482648236052,-7.441400270308065,1.4549810850834897,-6.620475918598087,-11.196272935275463,5.647547021731481,3.9029752480898745,-5.565261085206334,2.1381941953516415,-2.994833364165972,-2.2449317472347907,-6.002841539512969,-0.8201604858094398,-1.0919126558848609,-2.5647800940892114,-2.7341585148443253,2.2839862980559076,-1.1581332008404541
4.132346349586235,12.058946083855206,-12.469127592776037,-11.039651681764523,3.6499720406500487,-0.46673527413566784,1.8661757340028384,0.21393472657263168,9.495566717059857,-5.099182497272373,0.3657223746608942,-12.079593435521861,4.614548527848211,1.811240354044834,1.6847180812345361,-2.847159736005178,5.795108983273285,-1.085602389615948
6.520381443300931,-0.18007592709708398,7.882385990494083,-12.332925660756883,5.116667588476327,0.061844461495233816,8.3235462565196,3.747150058441825,5.134068403067709,7.639180305032946,-0.34519069915852274,-10.538292162974377,11.220853075848515,3.0544215633355556,4.078318571404394,-1.1043848456230112,8.524797533294304,-1.501751692816514
2.463393943556029,5.061024222552368,-1.3586224498223602,-8.644798821243326,3.457979336544078,2.936276052017028,10.09140240748883,0.3467717552122087,7.022754531812726,-1.8896794577197786,-3.3034130009936216,-4.308665178028858,9.428331034085677,1.7587392425764543,0.4167742693816392,5.228585005250734,3.734671720722355,-1.7229568635956616
5.926496482304097,1.4146465827281416,9.515655272832879,-3.783921499944844,16.057087408223353,-8.445326117589063,10.685532756350476,-1.4910178025834075,7.837325419446239,0.5921119313073229,1.159195128005189,3.4842443591902925,2.7526972402937466,4.857920607833169,3.3956269863783426,5.800031409928334,3.2413215873817403,2.6454005070339335
8.413521040120806,-2.037048742149636,16.286118734762606,1.956734162460495,12.249563172674305,-2.441924173877678,18.992900952643115,-13.778161025297095,13.33961827539984,-2.2985161761385706,6.4995890169337365,7.078634079029008,2.3269700308890133,10.008207277845697,4.909319738112504,-2.222118120672486,5.872857378477999,3.1071171506022726
2.307218814778906,2.225574887212833,19.441076428283054,3.205993081546886,24.65319293405205,-12.550193015679717,18.607115283185934,-2.9204350190286523,7.611451695594147,3.0128693567741998,8.616168005999905,7.939374153484078,3.2682981134960447,9.592322602016338,6.618069388684613,8.31099007836453,8.894865138990749,5.424019863788607
4.20946009099406,1.6046600119453025,8.433512858887388,5.725662083813146,-8.2562992389256,15.91813174362018,11.090807517192285,-4.269980748160597,5.49683210153827,4.026085203612283,6.337064121997568,4.113313618523289,0.5961721968160861,6.149394585865302,3.639024028545378,4.09806846253121,7.03382931354651,4.713241757361856
1.6201081023295887,6.158945249382278,-1.8925743922132456,2.386725824156366,12.741450185728914,-4.928986133190524,0.15507897063711518,-8.354035754509761,8.948943884802194,-0.040122998744810845,-0.24003952826906527,-0.39557657410100133,1.3419847557960651,2.5115241221279714,1.1480787802078531,-5.388080389434669,5.953900888135825,0.6818297028755054
-0.5778966840214652,5.048413185002121,-11.634821351983007,0.6111717570797789,18.407202134031895,-17.571207799310315,0.3510393485485235,-10.38740839000802,2.1472623884761854,-3.3262831441970437,-5.2556527345769,-0.1184596035917227,-0.15837823506270232,0.14360339515723752,-2.2219400422744546,-6.9636598245267844,2.139402925541442,-3.7404640434221905
-3.5563942212180875,2.081707777453156,-7.902383980817252,3.8170195032296874,11.182497868396126,-6.481022612305823,1.5223893065548646,-6.366168194820174,-1.2360998756559485,3.054466950891264,-11.346508265682928,3.968090269128917,5.665576366798234,3.8308873956297895,-3.4436080539702854,-6.195159340601833,3.9889024407946123,-8.35830400260179
1.3762067395109003,-10.944428704066219,0.6132218133341132,7.902642197981831,2.786362981997182,0.9973322419058587,4.450495574748138,3.3190177322980734,-1.4940875977671482,8.066810608690119,-15.094558610806752,7.469477646678885,3.7745908844487284,2.3427613619051417,-0.6613940029694523,6.097250287595414,5.252305090048367,-7.605179055049956
-0.13572979829616205,10.69724150844021,-16.752510791659205,8.57109699612017,7.769896495187172,-5.194960289638949,9.037804374585978,6.1679232763376035,5.279636987649324,2.530928334692976,-8.49184210501768,3.061374697315525,3.8368155811627096,5.249708801786948,2.1207686867894653,6.573370786762879,8.078081850955622,-2.359989011491331
1.1853326895182623,10.169906778228873,-9.608163693175445,8.556797837347379,11.191558817392167,-3.9638979929236893,10.49918952779221,3.450064455295205,9.514643128747867,3.7322483270619244,-3.452575729379362,0.5095578855244216,8.586700845708602,10.696257236718417,0.020026646134688908,1.8739300790239444,11.97794439559025,0.931875032873265
0.3589000532570137,-11.452204293095685,18.72592473537583,0.6330686587319803,8.168556453048131,-2.0479343975074125,1.1197917542443303,-2.4908067853781377,8.378883757578333,2.6862667968531433,2.3670539101391004,-5.166515310265017,9.039767916778516,3.7407966103089345,-1.0064646392997199,-7.024492863351558,9.236931313851315,0.6102511365756067
-3.1032664445248628,11.94519216144775,-0.989557883391369,-0.8444065423130778,3.486210992463154,2.603673808127175,0.3336026115696642,-5.209312615439512,-4.28005175080082,4.373536901332877,9.943652131236282,-3.0291759905128535,2.559290801115221,1.6687707048391471,-4.572008534721084,1.558121825515898,7.08171513665169,3.999489320679662
1.5412339200575516,1.2593207528385877,10.250526182530336,6.5658114237061085,6.715072058063582,4.326708725111978,3.9414396011228408,-3.2406191393819563,-3.168782094257426,2.543971785055942,12.831836256809183,7.409866331562552,0.27828451790055864,-0.5003418628603358,2.9955112653310034,8.969147324573303,4.731033416943341,8.26753448429421
0.034419720159603706,6.393281144124792,19.047256333460233,9.093976372425978,29.378842795273354,-8.402511661415875,9.892589543773731,1.6574029392674143,-3.4242307902848372,9.600113060022798,17.9653342352628,10.427717065208133,4.638224861955667,2.8976307797511587,14.176481105447607,10.813986869771593,9.118584907649494,9.215123000219503
5.46247607201925,2.1513711590500795,13.388757619389898,5.861163307898473,10.441524103367318,3.967329050428776,3.343174318534607,-1.1599705974317116,-0.5541159949900685,4.545555310200157,14.406507768585115,8.465821074601422,-0.6696988344896191,-0.8327950653768799,10.61127780736582,7.483272967426337,4.1308414351749105,4.59614586376189
2.883815955691485,2.791615964650237,1.087676891143209,3.6057504570325336,0.19693927630314345,12.041183080478886,-6.722196604598524,-6.9075401750730485,-1.1014809115021396,-3.537522818651939,8.405480997373663,6.602382001337448,-3.8288684384981657,-2.3164542541721547,9.97598392084451,-5.2222756510378465,-0.3687665321706204,3.1021607709647703
3.7244414522285325,5.384278791326543,-10.7269426328595,4.183228535091514,14.758701158229897,-4.0055384298587855,-7.6079206515842035,-12.167313719013361,-1.0623332246021087,-1.4653174953052608,0.645887026668964,4.446769839065711,-2.3978092328056437,-1.4556673896610866,7.387743626373343,-12.556338646108008,0.20967329135804302,3.170662495380256
5.054666086250945,-4.133359177154158,-14.633083967405213,5.9334091121973564,6.8605478070798,-0.031604127802361215,-11.814093243494384,-6.196967770943642,-0.7296216075203459,-0.9567485230379753,-3.5987271187835645,-2.4932706967283176,-0.9664041555893501,-4.305193142250124,2.4559567418277073,-8.366476779124614,1.4715609044905316,5.680589094236977
-0.9380843993346408,-12.675164667252382,-4.478280204581328,8.270338405536918,-1.0361577289928618,8.142365347744569,-11.430343170468454,-3.156901724911206,-0.49395290191251284,-0.7422561643928798,-3.0587816442584788,-5.526200155026045,3.88339817748499,-6.861043391729822,1.528406735814501,-6.031798798174268,0.9754509357524501,3.7959169230719843
-0.09339352314737681,-5.983111190531862,-16.591180855480708,5.82283287782599,-9.321965094439289,13.973235158400078,-13.097303581870603,-2.363537582598237,-11.488285799180625,6.8931302706884,-5.839839709628401,-6.409857453171172,0.920987757292985,-2.3848137433381833,-3.598126631019616,-5.74761848342074,2.334677750771541,-2.288020613366419
-5.887986073324994,-9.252898940109702,-3.900724816387349,4.840979588706161,13.644313301597238,-14.18016822810776,-4.217033920884303,-6.5513173525064445,-14.181049028221523,2.808503038599861,0.4606610359190162,-3.2887452873704492,-2.529275175353021,-3.27901732534448,-2.8648666269713576,-2.6310470722107695,-3.4352728925658145,-1.5358812049954524
-4.9427091273564985,-23.461108220341963,29.589151452744577,-1.3159565706788658,1.5531501307302387,2.00359760951004,4.956494050695348,-8.884223605799665,-1.3455470241282903,-5.964771141196465,5.100398593981085,2.079297105754318,-0.9008700822561906,-0.6567803789613564,-2.3265640856326497,3.5132327320069052,-7.740522119361822,2.243700698275622
0.49635096986087435,18.190152652868484,-1.3767277831872384,-5.225996588768529,13.096923852884,-12.574334072352213,11.884268889155898,-5.748943429834056,1.2365991531886051,-4.289733010110456,13.352920394337024,1.7839927134024305,1.0210027363647094,-1.744756739721041,-5.303553566870112,12.685222810099882,-4.5262923845755285,1.9217272142627442
-4.317083727856151,5.73826604011394,12.578338349538576,-3.861760208607821,1.302336479667277,1.85250974351663,6.507631979723813,-6.130011478077059,-1.454043881127673,-3.8853017382662967,11.643830047323567,3.833276025303574,-0.18164904511774704,1.5626644784767427,1.1926725141328864,0.9587787773575968,-3.2653868903452175,1.01389385972858
-6.296836109679466,-1.2455484945903563,11.199556608924768,-2.789748742647329,10.994364107841196,-11.6503967276659,3.865962716031244,-8.75789877565591,-1.116546827727677,-2.6029972851641237,4.270097619172138,0.3168697557725051,1.5459826500244596,-1.8674811348993359,-1.2951710499940052,-3.9312991445627166,-4.739070011375265,-4.190776903517644
-8.95854579072116,-1.3940841929842924,1.6159749498197282,-2.498261442701552,-8.315973212544666,1.5075606655786906,-4.048587413917938,-8.652081308215784,-5.172877042390832,-2.9819110254080874,1.0951843594912511,-4.175312768233801,-5.124372241092075,0.07438366409548736,-2.4153366026290857,-12.043756089457341,-6.017612022894642,-5.000729909043348
-3.4153203114738355,-4.4731163602939255,2.6755706423264427,-2.1083896153672255,3.52856245012594,-7.697865482282911,-2.8802456875111115,-7.570418217902279,-1.415796618297486,-3.947797837054824,2.412092966557662,-4.369754155967536,-1.6377156975553673,0.8452072449189144,-0.2146426259230294,-13.612815858995322,-6.026780270460879,-1.9042378649286178
-5.19470319204548,4.5566460015619334,-3.9812775386006476,-5.2334810211858045,-5.328220631408437,2.1401455537159273,-5.031461461128714,-4.243377792274417,3.3186725060327515,-5.110016668610954,0.8965223781957595,-8.957993965840663,2.4355207388875018,-4.047249997492594,1.009996532127178,-11.861181604603333,-4.961892712075357,-3.5928239613212622
-2.9683603824588403,-11.219423559629051,7.915396923390544,-6.6000294670997395,5.9346794640643985,-7.943904843092151,-0.9316938647700148,-5.409362104472946,3.9523471829391545,-4.417744777341946,-0.717081274269569,-11.68993761707732,1.7241879455191376,-3.0793588124538465,0.9656333619173352,-7.960743843240154,-3.6042137213191054,-4.402323908019925
-4.158244931874318,9.527735382382682,-20.912619318437137,-6.891651299807899,-0.9645066218211511,-0.7424771584314709,-7.18267771502911,-8.04099831394288,-5.276560461386512,2.7189419295037975,-4.186527957517605,-15.690633678288467,-2.2091640619238175,0.13555979234577897,3.2656294416780884,-18.122684981312734,-2.735007631793482,-3.6491184923824407
-1.830623106873082,-15.62500993696855,-6.186661107650656,1.6066024013967497,3.0762906574530504,-4.674032399409224,-5.522335953604102,-8.13433528628017,-3.176302581010617,-5.575279929830529,-3.0663775289065507,-10.217731710299496,-3.3097296371712686,-3.679964665922257,5.663881413310037,-13.928600092046342,-7.627794769835711,-1.2355352842565426
1.0848060279343108,0.6283603670170566,-28.08369718299688,4.832004127396064,6.240545915684379,-2.45320830765264,-6.985914944720253,-9.888671175018239,1.1709686550270895,-10.354798259888048,-6.829401561747908,-5.525295493991803,1.9381952021505882,-3.002304578308167,-7.0741940576676505,-4.9489450778722475,-5.587071209870258,-3.6069707963951316
4.295101320898112,2.2323039368543975,-18.047957555534992,2.4915673547325303,3.059485037980946,-0.13484160964517944,-2.979456692844881,-7.639871506258724,-2.586450129633638,-0.48662008175757976,-7.077005268856308,1.121090537246767,2.401652992729036,0.4107144362650872,-11.90134671873507,1.3942945189810088,-2.2769880943590897,-8.419625295321902
7.214347302131711,-7.785788526294472,-1.8610487198584516,-0.5318345817678853,-5.392599361507573,7.749845240065891,-0.4365853211603117,-9.200569083965592,-2.4366404190542346,1.4703273246353246,-6.250603115919822,4.2525916845992064,-0.8450966409715885,-5.355138796230046,-4.325297500747533,3.245624411388069,-7.756294783352438,-4.540502814744411
8.768338676484824,-1.788775539306955,-2.7654754455667963,-0.0389328921195653,9.595723908519881,-8.389497960470855,-0.2361465304342536,-7.441761623546648,5.23375003693673,-7.218361989844195,-0.541514310951198,6.701281063400074,-5.360586146834147,-6.334794905874683,0.2240531097384275,4.999645737043572,-9.91543352727767,-2.12599513266649
17.355669791863946,1.3754003336081766,-1.8155982931365775,-1.1079444577936184,10.816909542153683,-5.2905462803061205,10.512753841701496,-8.222925447430605,8.022203477396594,-0.6733760382531281,3.8001945775426904,4.658505357905955,-1.37901790129948,1.0850944168921421,1.2584382883936138,6.851676852135732,-5.043412122184984,2.437246923050867
14.519055283318476,8.054493734133413,-9.656072630088683,-0.12554764039445576,15.84940252725755,-11.176439554072235,16.28260605043098,-5.0010030666460965,3.389633252707899,0.7924861483183872,10.680861813470198,-2.07105246747734,1.6268304679798589,3.1347991177766183,7.3717604521727775,3.8211759190429655,-1.2458248077940142,9.735182154550047
13.149343173832813,-13.58791684925796,7.307402898863463,3.2012156870238484,-6.557224161181146,8.914241295591244,21.370420042837473,-0.901052471582533,3.1526398572831598,2.55041125472611,10.530057363641507,-6.163063565138047,3.461666197421826,8.896499701781082,9.970159149125351,0.4980596573372611,-0.6711435568356072,11.662230049468452
4.847992920344165,10.277422134271474,-19.090235151676772,3.598812122518269,2.4846946390362756,-8.593743386870798,19.233195026815988,-3.345071445176343,-5.579585138683616,1.3777048845235793,4.715017917431738,-0.8791456377638507,-8.081705968271184,7.9208279988933326,10.420862804746728,-0.4809100015648218,2.3447789918836013,9.390294950739282
10.709100269705443,-20.643986208862746,5.781402991660958,3.3133539197992325,20.51392457758238,-19.94977575314833,17.488300922328406,-6.278288879545748,1.3144326666281776,2.5478960757970035,-3.443865219528333,-1.2585925505431352,-3.022338004633018,10.071225127467724,9.407495035906763,-4.682221291527387,4.286262753072213,7.411643893918927
5.4393331570658106,-2.639619408373995,-15.344751880981082,5.469872665184454,6.318943205894039,-5.622356395004943,10.569311102121093,-4.720168079415239,-8.001718117153127,1.4710821468994166,-2.7159239889116953,2.171394492111486,-2.7472536662569116,7.437422828205514,2.730791815764646,-0.8752311441224965,0.3680771499158848,4.652052242336235
6.617106181103053,-4.167550655291921,-11.862113310000524,0.30257792510282,-10.998201029568044,9.09511250804052,-2.207315699104628,-11.561538089597128,3.874888173589435,-7.126243738282367,-7.456818458516561,1.5981941641738426,-1.4946254215155172,1.4842952126303481,-2.675529150665451,-12.986082950684452,-6.284731308866917,1.5021609668029685
-2.554691855789775,-15.950291798349184,-3.0092154131444264,-4.961874263587157,2.9380562683813647,-9.00104701897255,-15.95863121712215,-14.888161279075106,-3.5837001450919637,-8.888382629032506,-10.928137047157126,-3.0758535095380317,-2.487138311022881,-8.764727802171294,-8.178658719890127,-17.47925841371157,-9.910356992268758,-7.79982709400166
1.654788730378332,-0.9755563084153143,-14.762976049547326,-5.83124489329597,-3.6308493331427645,-1.0232628257057304,-14.278075521514356,-6.985082188646178,3.4121047590252336,-8.405237150549583,-8.73525417011895,-6.186601959186092,-0.4512544704896322,-1.531963545074623,-12.70434489983754,-11.229706953616322,-6.114202488687473,-9.581819325120746
-2.532110564895551,-7.8768955947210735,0.7289387706224195,-3.184470961105302,-0.04035162817646665,-5.6440439682365104,-7.517311162231623,-4.551779768159263,8.651127024605227,-11.536260547730421,-4.589136920939273,-5.3902679059842065,3.1481793994463505,-1.4271566163461102,-8.244636809167192,-11.229872500747692,-8.763667646927384,-2.86722984905468
-2.0292363077496507,0.26031944190707357,0.6924804662770532,3.0760876480508963,3.5531781617704334,-4.503778051818975,-1.7310618193805425,2.9587771262755513,5.199675348239964,-3.1444919440393213,1.1196105095172137,-1.175142665181745,4.502530331043092,-1.1259713038468724,-2.221507176200859,-0.8779364341614015,-7.1164016537145525,0.8203359455831063
-4.551535012576869,-3.0291553207472015,14.522670669475417,6.602659917921088,10.079503933081517,-10.883959260319456,11.186319434670342,9.296488897363826,8.487680150936546,0.3635794514330817,8.586330092346385,-3.8929494405929685,4.783709591515036,5.035745801057017,2.337668900339736,7.521228711870176,-4.590425868960244,7.242692136370877
10.116159179513012,-2.8036820763221613,10.383128167896079,4.465495461739614,7.917384229705162,-4.374160187735466,13.949465361531438,13.680089925362598,18.9057790940265,2.6013011233618517,6.287434685528863,-5.633414170040224,4.577681487244833,4.75312319187301,8.948584224035608,12.89339042569423,-1.6740293031996563,6.731729309886739
6.42644119369419,-11.172816946953255,17.864190492182818,-0.5033497073231139,0.6801829753311956,-1.673893424582884,13.785099750281404,7.7110113571080845,8.426206670941536,3.7639996020138495,5.1606170651614915,-4.736358306465981,2.6149127349039882,2.909050888692106,8.72439790295046,6.254039131573421,-3.152441390980912,4.072683033733125
9.77033447958209,9.949962446128763,-1.6089072734917367,-6.936685938599945,5.653345622291225,-6.78716407417041,8.251828352899203,6.819173399914268,4.100162018926276,6.390787116422808,3.545721199199662,-2.86196662087956,-0.3233179391593457,0.2847930801957479,8.501164499239582,5.474543660638717,-5.119352556557532,7.078178250722948
11.260994369047243,20.036697718343355,-12.48870513197494,-8.975067787123626,1.8404813900961088,-1.549668947420379,4.576371418146227,2.996639065554427,4.365125615422002,2.571397621606828,-0.2174092898249077,3.1148052211378316,-3.260416866947865,1.3726073277565705,5.642137064241147,4.109495401305181,-5.328634673577835,3.3456871174675182
15.683658479235705,-2.885598861237224,-2.2749696324531334,-10.231850845384336,5.648111866476981,-5.492991257253292,3.8330097778700356,-0.0455994067228378,9.318758718564116,-6.424607447368182,-3.8826215334259517,1.2797094024404254,-3.364293861411956,0.313029979020786,4.248951994103729,2.744842868635218,-5.928757794754995,-0.5817172071021579
12.100666927743646,3.0004260227258763,-10.51904271250313,-8.851557495071262,4.6737231875113965,-6.507605110155512,2.0178199792448126,-3.5770941395967037,-0.8634572045130167,4.598479572432037,-7.059260098981136,-0.9452695259937328,-5.615478495187051,4.039760574768737,1.4895454045244354,-3.306983567127001,2.064790523480207,-5.582950405391381
8.129329120842614,-5.469944975179145,3.1117652078364757,-9.32646345856245,11.41752310914631,-14.359317093395731,-1.1621291107188085,-6.3282956519790385,-2.2553739069513306,8.394159770460252,-0.665131068413279,-9.028968900109525,-7.1818816838492685,3.7636017226162015,1.0749212653717786,-8.088860051112626,6.444793227350486,0.0609197217129851
18.027679458745013,-1.7338027702759249,-1.324518624573843,-3.3556807283563606,-0.8786942678099994,1.9093451616383206,-2.5817495327941256,3.517381807390546,10.025896729653192,2.7163155802909618,4.948068787596501,-6.076603761953558,-2.106367218890134,2.6095995509589516,0.4659874388396297,0.9970633974878664,6.429988963908883,4.142678437319218
9.959297665542474,-2.97890590655161,6.6413637144255455,7.009958021511897,7.238810849755923,-6.2375451253359255,10.454503386385335,7.60028259667185,4.6322204325467515,4.8503773198961895,9.78036273716477,1.368753005368399,0.8218817795305278,2.0426178248943003,7.963660200647426,8.22789190237472,8.368131506928973,11.838188141486222
5.7018614785828,-0.12308089485770601,1.618442802553754,16.789887686214232,11.453271821207132,-10.088640955970947,16.461963445550193,10.998608991554065,0.411540563058721,7.764997858302065,8.558255650189132,7.252317000990556,0.9192740467883729,7.1408559096173185,7.942708747977871,12.822364597924912,9.524804886794598,12.307441238168183
3.985820649662563,-22.46364620317349,19.6424677539447,11.140111180279137,9.616226894391858,-9.350996380188361,16.221927363233775,5.899741828476348,0.9771922267531892,4.721803120695988,3.918528903130421,2.687229130180294,2.0921315199365074,9.40808650261829,3.5281876382430273,7.3584940450820815,6.384331296680303,4.866834487907223
4.908831992139615,15.059293301416087,-18.584603455259415,4.513953234471492,8.954355249009186,-5.489503436299675,18.425966973343797,1.6788244435189714,1.1533131266052927,5.877207903320815,-4.529426529115143,3.3963805720033626,4.43812367679158,6.40286139917413,4.778850231459213,7.949807922111919,3.82959866165407,1.723585728940213
-1.3925384611785319,-2.106788213919002,2.857009632650474,-0.1588749789825714,10.053607617277793,-9.93014232234352,17.409964472358936,-6.44937193454013,2.0141355489408763,2.149052014619701,-6.629184205220241,1.6648046202761426,3.0743746455412073,3.3010353334349567,4.175055915827659,0.5335919379120946,-3.8035409505844626,-0.34501076403447195
2.6600990302056484,-3.0623682013466604,9.356836387155052,-6.9800197947831055,-30.44605044371572,25.765302801849437,10.146559205839306,-3.2502391569186058,9.809751226815786,0.6663599393397811,-6.872979184024627,-1.62858456085435,2.1025200363715593,1.6651258627815504,-1.505896099589556,-0.04617739254799369,-0.987505785666315,1.9814072517291834
-3.3437279628337873,10.532374799393022,-5.921122264417685,-3.1563387142258024,15.191705240444653,-20.963653876083185,9.331284852978404,11.276223634059791,0.6140094151159987,-0.9146448233484645,-2.819347465011,1.2311687312043942,2.3038316763831377,-2.801814653775618,0.13853107369088136,15.195011755060753,-3.933479558320187,4.1129244475143185
2.9595970718443505,1.7628178728882027,5.559073144300434,-3.727145382416717,10.831982889905396,-17.693137338180307,13.88993191389494,2.9498083969222773,4.114857935810541,2.6795647596833367,2.8949719624767214,-3.1350519513096393,4.459580767377414,2.205081178739814,-1.0480643877147635,4.361988304097714,-4.2428953928047255,5.658907701811488
-0.5005823401824046,-2.612815531943917,9.812571521795606,-1.0751579306979653,-1.5323933544751416,-6.611310610178862,3.998002974573062,5.755409835624233,-1.465385204433228,-0.953535444910762,7.144950892671202,0.8979854756882937,0.07355256634001739,0.5722775900061814,-1.061712723639313,2.0255914127926924,-6.505665777393875,4.959172654508132
-0.24750646997153503,-0.1530794870209018,7.815992585443126,1.5768961607408576,-3.346459070984677,-3.148114599769057,10.320050479740217,6.509234275383495,2.0376129635231917,-6.83339203143954,8.465742172975588,5.3223396841759785,3.501442885384596,-3.3056365431830352,2.343715770176189,7.795188971946975,-7.108452956029822,7.7755225820119165
1.5703447982837275,0.45048931405146897,2.8897416358065544,6.963411371203443,-10.821407405677128,6.368517659989575,6.097873895990963,11.55903615850236,-1.8803130865133824,-10.07710954443421,13.79106376056028,10.040345989775659,-6.2531550362152775,-2.2019986591998144,5.945516619913298,15.713657384260813,-10.738827014615202,8.54146229443496
-1.3947924201663753,0.6627588867717797,8.705944230056835,2.974805494248376,10.906564517471468,-12.14398048713321,16.624846425927586,4.498316546575847,-1.1096117575859417,-3.3603492399549544,10.32776955069502,5.090907637799134,1.0836649662733644,-0.2184448289782912,10.817925190819594,8.202601674678824,-10.951375597573875,8.917168767145336
-2.404545989667156,11.421397755296223,-2.3724983680009486,2.013588918376697,1.1919876555677718,0.7879406509581361,10.455192513871577,1.9288927236420488,-3.9511998707727383,-0.35518672488389114,7.451019886579537,5.51330902512406,0.3162120064510794,-3.5074244403760506,13.933551039183522,3.621674938731365,-8.625016800011984,8.902636794866307
-2.728479607804836,-5.65308463040374,15.846566420536409,0.46640247485181946,-6.956836297150268,8.2496425346791,4.7766894782456255,15.472037267604467,-1.8112059238074325,1.9657757294843459,8.285879171440286,-0.5090443198958653,2.284500651912168,-2.791464711264691,8.261035657759091,13.787461384921365,-4.345695444803117,8.302545102265343
0.2701515076818284,16.432522466739073,-4.997238252309727,-6.647321535347653,2.4759455204887555,2.916783161589855,-0.410649317154272,2.54897700716336,1.5017078752305348,3.5048879312100705,2.382985352790496,-2.3314669724263624,7.086193392662517,-2.7581504697116337,1.027049888993166,2.175963560091317,-2.3126926980641827,5.066074771966898
-3.467415188906835,2.970048501791667,3.0659157422880954,-1.8468707412030643,19.138594090553042,-14.429385774469218,-3.2513151092682016,1.2462321419631004,-3.387612574829493,0.45350531857851895,2.242544730868148,1.4132408393934524,5.834439958792454,-4.286415447615639,0.9231299761802854,0.23297086136799994,-3.1119533104773938,1.1463736650573804
1.6840423187521694,9.917378878455223,-1.273154951344492,-1.5387687554961986,-0.4266055459898386,4.844681343068359,-8.139896139375567,2.4816343906672325,-2.6117799201088614,0.428938673528955,5.4231287826585515,5.549209954328391,-1.763729458705729,-2.0050987767614084,-0.35163531184524643,2.8802775956277036,-1.469957606881447,2.9888451354819052
1.3688187449551297,4.266197361578674,8.548495427031355,2.8708421347059474,11.945426604983718,-2.2502656033778745,-3.3574551332321327,1.274640554837954,-2.8115329270214318,11.243813997984372,1.6706891909372232,6.951383406410874,3.2372894639063086,4.7693881154537845,-0.9417529103181188,0.5474217541136239,2.3203229039207045,6.589513803628831
10.821503001637295,-0.01843966318634846,6.260974930871099,9.331125822714501,9.47660837862808,1.7863391054852187,-2.9666997931804673,3.5823743203408647,9.294567941714254,10.925146284060194,-4.522504183980475,10.697954050282116,9.118569969682735,1.0953946097887597,-7.878584773561604,9.543242205306573,4.645553538332413,-0.16118866468176485
12.268366784596251,6.536267745191298,-7.647387890492418,5.732498828421416,-10.665161331180535,20.567826583852188,-4.233208071111596,1.6898757345209199,17.885954983650095,-1.6989511002446984,-7.004000482640775,7.706742066991097,6.309654905880935,2.891115200428877,-4.755635877121962,2.914198686834749,3.7478966512043637,-2.6146103122496527
10.396960988544382,-1.8513250718197782,-1.7307611756627534,7.407202517667822,9.919417446000764,-6.648921593110419,2.022851402366454,1.4566106975830726,12.415577792262344,-2.8976413301260227,-4.699551915772476,9.403692712404645,-0.40422575957996987,2.44157049692817,-1.8269748976653668,6.539588113097537,0.9945622438511599,2.1589715117623323
5.793210407215621,4.213759985807954,-1.0871449249609948,8.49574852036223,9.315306853319013,-8.183127019127229,9.356070071401042,15.968717846742454,7.922713214234285,-7.3195797377017024,4.929954824733609,11.882485687197084,-1.354955731403579,5.801521697297266,7.450460159303539,14.559941627077457,3.221593714214384,8.593055593708398
2.363402003880685,-13.55031332796855,16.15883353731038,7.4355889154936925,8.518888450587225,-4.542916784900765,12.004642082736531,8.995177009768566,4.602660942816346,2.027685864184158,0.9857748293393143,4.791389492414497,5.703592356702246,8.576351034090653,5.009980150383561,5.685867216953424,3.6906085172823753,7.214830659553726
1.2794050446155003,9.408218667426315,-5.560041383584167,4.9103036985929815,5.967603880358745,-4.419830238844091,9.577935837639242,11.005204485193707,7.142976078637263,4.831350640224377,1.2416276976051894,-3.17806838937845,4.657890048144999,6.176124490358358,4.035372163485233,7.2615272622962745,4.354762904865235,8.571321727112343
4.006061065861486,22.20967035898853,-12.531974416494227,-1.3262594336629387,4.981779864520196,0.877672191426333,6.47054757780388,2.0766226129766414,16.617876713511635,2.458627772379372,0.13103254846303924,-6.850039459623817,1.6603729633241393,9.63614570469611,7.261044488976528,-4.150940910333519,4.139823097704053,4.556925030482506
0.289281861464044,5.6154634796303915,12.430834539615649,-10.395205181574058,18.45219975022821,-9.451506278004931,4.733286383923025,-3.5325372660313255,10.956695919781584,4.479980316587641,-2.3460008999778417,-5.150300637218364,2.961133790839252,7.335121840851203,6.483737930474414,-6.578550972114725,-1.5441234256981138,3.570194490971378
2.1409430756939027,35.50565819021817,-0.7898344651973708,-12.140152999808079,22.257361484725173,-12.848424655127463,8.467772512567667,-5.236327477348625,12.034749244870476,5.035948085544296,11.388929705571243,-3.7430132350428167,3.970255395407515,10.698985978414774,1.5081274044580617,-3.536986913529442,0.682034891736514,5.1228293033917165
1.1624517877361784,15.199087353550468,11.576559973845017,-0.7993207034210079,12.783886580474599,-2.867667928976222,10.25201154918034,1.6528246938481794,3.54317527610688,4.614823696828742,16.530766907522217,2.4500125312889214,2.9298944414806525,9.375994396591754,7.666467944856324,1.8486981115313568,2.7127066603633776,8.62887057220379
-3.525139783046267,19.013286341305644,7.927857267604338,3.5097727137349803,-6.647905737743621,9.84607551518181,15.359513996394817,6.880857676997385,6.380711051998144,5.365081044311273,11.614652550900175,3.5653318924246884,2.672120720596472,11.178742300428127,6.013147247296284,5.574531182441788,7.868255961737372,4.22487376323936
-2.2537443070307166,8.47110019337246,12.873844249664847,7.232513544401205,22.556582865482195,-18.067224541533818,15.098732251889839,8.10398680978949,5.508044724382975,10.021140155718719,4.355555465013559,6.438973335327557,6.224318850681568,10.93134472802311,3.0912226502737954,7.445191156580645,8.726695328616769,1.2859688502133242
-3.910245879967804,10.916690338902011,-0.4413216966894753,6.560225345843216,12.505338741472658,-12.778309054590812,14.840832066403614,10.302757898812116,7.761197748397639,8.133625833330534,-2.6097585926733267,-0.15971688093248604,9.875488732512121,5.6063862857478775,5.053120015694303,4.335624618073874,8.803704048128827,-2.0433545814573426
-0.389082587024963,2.1309309599751645,0.3071069349622664,5.9851395769533635,3.921590262917981,-7.588458832100743,12.827962974651085,10.254466540046902,9.81978614607055,6.929213539558043,-3.714792238985149,-5.000112561743821,3.664534257685967,6.043849980788787,1.7424221047018555,7.964754602268435,7.513336174064013,0.1940120204385618
-1.1630864870448878,0.08283953806788258,-6.951484009719547,0.5266869047755751,6.668718213708818,-8.259470902109445,7.009300149198495,2.685595751862338,2.6016188431355234,0.9390722170941155,-2.963507195589706,-8.082227918527769,1.8494782404471506,5.798298134712147,-0.4931307162276406,0.9494975536576207,4.562618828480996,1.2596707741639515
0.6037522400418771,-10.071567557729693,7.17791996300811,1.9037715747278423,10.785580463503468,-8.150608255086786,5.002133941737354,0.5846259299894372,0.4623620026283266,2.663394697426866,2.769149282063886,-6.281029762038502,5.6022056944473055,5.55330743769056,-0.38400102580535744,-2.5497800262606782,6.7875940085041835,-1.483151303592706
4.325454463561192,-12.511743964896517,13.78866207734568,-0.9189555915187317,6.115717776446759,-1.2070793054662232,1.044643259889238,-8.841605947471447,0.08163045985290829,1.0668581479586678,11.041738193695135,-7.506809816983403,3.4967525443594205,7.457320041360414,-2.2271430280342246,-11.615253774359596,9.98897891915136,-1.0031110813320137
5.216757550714201,16.49313323537686,-6.162483096472016,-5.109444629428278,11.604675895343586,-6.472130691310971,-0.370931267847153,-2.6435300241520316,-0.3960951760947973,4.645687480169602,8.865784054078844,-2.677413297932021,2.85744022227675,8.287601771337124,-2.5068921325000977,-6.5200659491532855,9.38154416833816,0.06301816819541628
8.062856750509226,7.21542926838466,0.8409595263473668,-6.76141037512279,3.3262511036025284,0.1757130565603866,-5.201728149147101,3.3583007169821575,7.818359085449065,0.21608901849812767,2.8820166036299684,-1.5586295374287213,0.3638958985683294,6.774572661259462,-3.078759852606556,-2.4011719792968034,5.160604956543281,-0.5309059693678098
10.226958434722679,0.47607082994001626,5.306385504220174,-5.972534938289904,2.8627450969756882,4.478436471433778,-8.369562144563819,-2.7503570979019747,7.3418926193718725,1.3524896171917087,-1.4407278321632848,2.7832254262217018,2.3638624441510134,4.578384379321138,-3.7474455348913125,-6.973538962711261,3.8692294422522946,0.04717650489467129
11.318396398015949,0.7673049321585355,-0.8717649215522458,-2.9381580831502516,19.393925128936825,-10.068103025751059,-10.94868647954058,-3.391109309847227,6.963678934786817,0.7305594809936129,-1.1727146943413729,1.754254604060955,1.5329985512604813,5.214685113427376,-1.7785476387371375,-9.983109712227378,3.94489320657161,0.039411757542282544
4.305777533349361,0.3741607334688579,-5.193268746786099,1.2674608628118762,11.219874445258787,-0.6897988671000252,-4.345238890493395,-6.2789164380445435,-1.617213169874896,2.9402128606258384,-4.419534571437746,3.8506652635577554,0.5080518614288225,9.171732592368432,4.976388598182184,-14.750252802433737,4.89930683280307,-0.16358377958128578
4.911961643746876,-12.32464253316904,-1.6033142216003293,5.570062681510361,13.594974176959221,-6.840360827522609,-1.5477184193206686,0.5004667906002997,-10.978818882421685,7.786134498198346,-9.521004538700662,9.267756493437693,-1.4922514188300386,1.0195724169209903,4.798418519569213,1.3816222029804808,-0.2012300766687476,-3.589214569242527
6.105554569380452,2.905874075496397,-10.60999531786966,4.500789968952435,-3.266450767992616,7.222962049922888,-0.5053328129484793,5.423428046184188,3.000300062986785,-8.071875509320021,-2.7073823840544478,10.681181126371932,-2.0264801736376414,1.168640364125836,6.672038078200966,3.060408246400775,-4.325361202938309,-1.2529829989501575
2.320027775294439,2.3150326958667353,-5.259744703425241,12.219991220551137,-10.360117152575974,12.78881302565232,5.71559654949422,8.001679670292877,1.2570239906813159,-2.7386468743691683,1.8609599447565648,11.2159699272417,-3.0478020936068075,6.298540934377514,5.812001586019383,7.083231665996902,-0.24641486120669942,1.9622095099634844
-1.0734808206573314,-15.855016548036456,14.154495051287169,9.879698908315055,16.142396855946398,-13.580645907220319,3.052333566664677,10.090719809222435,0.10017184999649054,-2.191138917767489,3.40276042769675,5.793903231004684,-2.7983912295538707,1.7605803817086683,7.589468068278797,9.15314710410277,0.609652161477017,2.931300952008546
-2.317170093148384,3.377023231122932,-6.860264806469404,7.050348041684586,2.509429572864285,-3.0366875886202074,-6.834962245905576,8.370186429768445,1.2875593134942713,-1.058176577620031,1.8203607625839155,-0.7998071252478156,1.3584975578289535,-1.7029229606592642,0.6761227467414042,0.676268824118688,1.367886262297694,-1.08013959707315
-3.9501798545279625,7.178303564086006,-6.779618151440152,2.85299560760709,-5.164634596387536,3.8927468926469437,-16.036036502122307,7.820625466398354,-1.1379593756342512,-2.3671506363930517,2.289620159809345,0.5169910179621346,0.24302239382093216,1.0838577296084324,-2.0372298195103946,-8.776949043460979,1.0517086648600376,-1.6735605375825688
-1.67560844318567,-11.873175083738383,6.290872013916099,-2.224092855496457,-10.883832938805655,6.91470606232123,-22.695415155937702,2.582573763856267,-0.8286546372863608,-0.9422018884031322,-4.1739749367351,-3.5371729060620796,-0.09005157828485544,-0.5238049162744289,-7.972595213826052,-15.495516560258263,2.200219158765859,-5.685017555749676
-6.528819699670294,3.7429847285070412,-1.633658860215549,-6.716074199790273,-1.1714681984113113,-3.7365616995799478,-21.637261402689457,-1.4845029392201514,-6.866719716035808,4.290903611197815,-5.167893430211725,-3.3918584961031133,1.3358378674104645,-6.916575806666266,-7.950163365650292,-14.498892935072773,1.2977375749608635,-9.989476640427355
-9.525341001677027,-10.134363975437875,15.638928917741852,-7.790896688449454,-17.043862999838794,9.048907871952435,-22.3343998223667,-6.236100285113005,-8.80279967379361,-6.29704126892425,0.5774129718330641,2.7107552230769976,-7.784200118763605,-2.371592946824731,-11.05212175678469,-15.35754041307127,-1.55807993127612,-10.387668408880861
-16.134045499270332,-0.37942245682436493,9.670424430412982,0.9968280462246568,0.9724738094713476,-3.264758470369453,-3.692782657117176,-0.44157663405061154,-14.449536786587029,-4.67826663096695,8.667343213811778,4.6142447242982545,-1.3755649151741283,4.224254957133823,0.49522054483273115,-9.770554538936766,1.836015175571883,-6.586632828256768
-8.874237609378348,6.444891889675799,4.387001788187872,4.217154844399019,6.099411341185852,-2.200386948933624,2.1581691836090666,13.457626151079982,-11.209105413929993,-0.4232326813219167,12.85179876581559,4.9553502423321145,4.545857709799574,4.667683227639982,0.5195713049791806,9.78170748444391,4.351006187652307,-2.980981112770584
-2.394618423834922,4.8697333703249335,5.843468241886997,7.6318684370321,5.954179249101212,-2.6995871088461634,9.18348787500383,8.019684861817964,-0.3510787538652975,1.2921985365433368,16.353481488486437,-1.344149645745646,5.7807681670951085,3.7438865064103766,5.134439685000972,5.798670518491601,6.572837836445665,3.944952776399839
-0.9921687209411787,-4.421306237965331,8.863990514997461,7.334637579003718,1.9039111570896434,-0.9536818832415959,4.88295778285448,10.784084131564333,-2.96955095991222,3.788388234787233,12.53166109582644,-2.5653452355988646,0.473652266065415,-2.6487950030826433,6.234215225925835,12.55819869927935,-1.7525543232533591,6.964483785531994
0.41127365938919835,3.4744842494115504,-9.403316041138217,5.180938008778751,-6.246783759623723,6.846006271851632,0.6825094043178481,4.270090548515165,-10.08003190041172,12.241194558424297,-0.1761905908430519,-2.3215921907222037,-1.8050489396551517,-0.7406547033924316,4.893114994840499,3.204411113189011,-0.21470434329382604,2.171290368857446
-1.5046948644279503,-5.91609012230219,-0.7155016556131155,1.854352917492531,2.5960904733032493,0.19137805448970813,-5.175721854888845,-2.3424660654554232,-16.21370973793313,15.712948406895897,-8.195652393298861,2.4144799994894446,-0.8600377882173689,-4.789757433782674,-3.576450636708387,4.495526466078062,-5.903718487472552,-4.477516901298978
1.1701621770436468,-8.862211308138136,-1.4988776534178339,3.1166683380782354,-7.7985641269083565,11.016541037641417,-12.008157227590644,-7.0027707243084425,1.1883322670397283,-12.749888817464166,-10.159520998239826,15.64681910223223,-1.0859307289399744,-9.034331287377816,-5.2094429374929145,-0.4632460874344063,-13.44842277452346,-10.149874751572106
5.11544109696653,11.237923595296301,-13.80423122032753,-4.704219608301993,8.858944434043089,-5.015091861563982,-16.006170373576186,-8.245954669242336,-0.7456746359059261,-7.716633645398776,-9.778795909746561,16.086018054684548,-5.314820679798014,-9.86107458870954,-8.404445653974555,3.1720684520636215,-15.622146136250265,-13.771558824106002
5.741187571109983,1.1608331917449548,-6.967006980128643,1.1459226690890618,-17.061429779618223,23.484314704293908,-20.294834584493323,-6.462645971446574,0.4455293824974741,-8.933988830793858,-14.573128811099828,24.142524711209408,-2.4137440163190353,-9.027861285427777,-7.009039217178566,-1.8839511124178405,-14.280387303398486,-14.951948514412093
7.051328417003464,-3.643735958524781,-4.2297224938172855,-0.7199693618538936,0.08607378644186525,6.181378752717983,-16.670925350824696,1.276890713284434,-1.5858287399810016,-3.901766236394387,-11.163415295186294,15.108910874364833,-2.350510661308647e-05,-2.530758541185849,-2.5857654747165046,-4.010034577450327,-6.591073438744417,-5.878434521116727
10.5106892440906,2.000063183154223,-1.783701682036154,-1.219744867919053,15.574132324511716,-11.708338070203443,-8.650147010823973,4.034991896892179,4.488529371352907,1.5205670548996126,0.9386270595905122,2.5595823914399864,-2.468276760178849,1.2316336280694475,3.8887802393566733,-3.4014979669494845,3.3441687909791096,1.7300448920153069
8.697241371967044,11.353833291304042,-0.9961290699198404,-5.529282612274215,-1.3595203564792993,4.971978940658769,-4.924064140897919,3.081211892051396,5.582447550590276,8.016612483183984,8.646854518215134,-8.720251570921254,-2.1035618784339762,4.603066795131668,3.4300679895935264,-4.159966571036719,11.521370507376508,5.43203725114639
11.18140299608108,2.249254043006529,11.512129201202686,-8.765713638273816,10.71175607381333,-7.059857297661447,1.050366150640183,-2.463364972494674,11.266365860753025,10.996453461844816,9.617474492025881,-15.703221212618473,1.094101323657916,4.849090246470105,2.0928599287454244,-5.79715154465422,14.327193842010171,4.153298933950818
0.4823984159041528,4.569580566212725,4.685934849303947,-10.0501358284469,1.0058584109743602,-2.099995622680283,6.245728243400752,-1.270436535491572,2.8876380048135806,10.460087139045463,6.29192339845657,-19.951870539355294,3.6090141472125623,7.829134629197696,-2.4666473185708986,-5.090346961713952,15.179658267527524,0.5305809456082456
-2.403398299229498,8.451367722622297,4.306953975726247,-4.0113904925293,3.312286351307124,-4.562842062987864,12.2245203391848,-0.9573018911722904,2.614553628456627,10.606793445963053,6.482813111085978,-13.36062727893194,2.9020550683672677,12.175958076849714,-1.7522478311189578,-3.309102577843741,18.47336071262003,1.2046021523972243
-7.632431995062291,16.14073013604798,-7.203184316223135,2.514464087180624,5.033113022427047,-8.491245257901792,6.095895149216143,3.065957731337087,-1.4671483404949033,10.167018833801869,3.549409722215169,-8.429702303597473,-2.3940047702404224,7.3424914361398645,2.282886276321446,-1.5276522972194897,12.391713303966922,3.050307935933246
-4.657706384090255,-0.09714379136945706,-4.2581301562404565,4.0585785521182,-3.304540708632871,-0.7013808937670452,-4.327553640474105,2.498439768516458,-5.646489934483483,8.261840695113053,-0.4574820319515345,-7.112270508281065,-2.6110697939053704,-1.6907534467248913,0.654225775430503,-2.187438009234448,8.751301352521079,1.380120379144902
-5.78413611329006,-3.347641666836388,2.8880753229642533,10.38671158342504,3.3972861476895506,-3.4591841690357388,-6.643318475201712,0.660513113530123,-1.7202364947485815,0.008369072738438454,2.0794335576937275,3.775442990555599,4.301651649403299,-0.7634368021986058,-2.5366211895006097,-7.046297040798021,5.891942113583631,-0.7785764058273699
-9.156263218274345,5.119672546231352,-3.928886332603448,9.291630925482462,4.728047848510165,2.571607149912232,-14.914139278262883,-2.350158368394539,-5.99724546548274,1.8131013728869143,2.0779784357095883,3.4323195776959556,5.941605491139553,1.13989711071787,-3.8716504436109522,-13.174494806557123,7.036339948496151,-3.621103158138266
-5.594298901054025,13.683514488126075,0.8773336367638098,3.214765955444038,5.66821131858944,-2.3358406520214956,-17.909401160236026,-0.9670769508376558,-4.024185448776663,2.347736833925153,7.936709845393222,5.921053948709206,0.648588909938,2.066061741987842,-4.522771369593981,-13.735986726912634,1.4421424955431212,1.6417320643330722
-6.719552659476885,-10.957418432284246,14.279365762824927,-3.5469562560078667,-9.505197135423707,9.357985017654567,-19.730754301349847,-17.74917363715059,-10.254415403851658,-5.907373389485324,8.620294571492579,0.5969326368686452,-5.424981860199086,-2.6725457285977434,-1.8532412387222066,-27.67637122882494,-10.500020095137515,3.6816273387621683
-4.719443320950622,11.178549856065223,-0.34442239634462446,-13.923280757325514,-0.850238976082319,1.129119274314987,-12.956235400695503,-5.7230680052941665,-6.62126607516748,-0.002663148866286935,9.206926366816564,-10.391593761372754,0.9046665618299903,-4.482074973833652,-6.214796498361244,-8.608218197465789,-11.211755252896024,-1.3100726482593925
-2.1331097571606117,13.000538898805624,-2.759022157340489,-16.97655282545503,1.5544250666622563,0.4194170522516414,-7.156327787610775,-3.561217273380649,-1.8162882334614945,2.5811293768689287,1.3956884476917715,-11.028675432286871,3.816958606012424,-5.120395597957737,-5.595550826133075,-1.8447151240720747,-9.872891029199085,-5.4230937596295306
-6.382577409921074,1.5398931540972907,-4.488027471478013,-12.41381072099737,-14.498498819367944,10.646929214220226,-5.651419262894677,-2.767389697411151,-7.16779083964095,-1.574019301699538,-4.754680941987896,-8.248031365010718,-4.207773502802294,-8.493846930660672,-0.38615060465945245,0.8173924725967385,-10.487395053658267,-9.829331042141652
-1.2566981453133428,6.875183924681559,-9.047097956537623,-11.368047591825974,-5.25841881487115,1.5377862531125523,-1.898465710735916,-0.8024751949668584,-7.734149943218648,8.82127570992185,-5.04490806507901,-10.838877470662325,-2.759083964141329,-1.711636406660796,-6.114191631701428,4.163338534970881,-5.730936888707881,-8.76697932893056
-1.990115667589637,-4.001917418427489,-17.119819121234354,-2.6086333703625613,-1.2922827557166805,-6.204541031409174,-8.397682178856554,-1.1821430745671329,-4.003663702369044,-2.3663517471987596,-9.533749322620231,-9.816720805471618,-5.020789676628604,-5.770206665401238,-6.47084610054232,0.1851934019521786,-6.345867796962837,-9.951000914786029
-4.481240623341779,-8.141854179307483,-20.11229151445309,6.344776640013711,-42.639838623562525,31.65893346517825,-15.871607500921522,-4.492329932744211,-8.671846941371925,-5.2536353300737755,-8.357782185240081,-4.107345220451359,-5.328763771013481,-10.415522847248333,-5.264780341943451,-10.335775631914302,-5.007856877332803,-8.01022022632076
-9.023081432315118,-21.072219023623724,-2.6922319694634007,9.535051724118418,-15.627550718711259,2.9194960544595565,-17.288908372574145,-4.38527229865647,-13.730772707229152,-2.5749937138743952,-7.474138065199957,0.527423784968261,-7.784653459166538,-12.229591217685194,-4.449163282013563,-9.918827376685684,-4.158346993699394,-9.292389807101397
-8.388999968321551,-15.644171896208501,6.038370559914717,3.544163166079781,4.450390244615907,-11.85518802873733,-15.969971786871819,-10.236102337155485,-6.191968417002224,-5.951699718096729,-1.706966020881164,-0.6000039826097758,0.5023407746677923,-10.040545352317267,-7.149056376793557,-16.923610953773434,0.69491879840977,-9.109936857137669
-9.512729849041918,6.189121001915227,-8.959758663415943,-1.276175624382096,-14.633142243719684,6.378170033547202,-7.324907635041899,-10.521195288431,-14.669157890890082,2.389953847411131,2.3029983261827316,-3.5833374176857555,-1.4642174288585768,-2.383544866706117,-7.407350889174621,-14.84596194897286,3.790134995957068,-2.579972382080708
-6.046551437520337,-1.764462485549541,10.419752616841341,-0.922003569212297,6.419865392294457,-11.522080432848089,2.78679613755863,7.3573092908129,-9.572050919302518,4.0903105681116685,5.825296313781864,1.3431791619080151,-1.0865018595581244,-2.1494364127063825,1.514324206560453,6.763504453456134,5.81090722015689,0.7270477903665427
-2.0921226781724234,12.74195789313038,-8.773410987781137,-4.2801804992240235,3.6435228352935036,-4.910453621580409,10.458806516609508,-4.355211014394919,-8.088413903410075,1.395497463845851,3.391085232173913,0.8980749352800963,-0.903636058899447,2.9666311005606696,3.990717817908217,-1.21704814370658,3.8275049902273692,2.959597370676942
0.4950271373687798,-11.132400323316798,18.22768507226481,-1.975568037532974,-2.258798599466048,1.1150402497456953,16.277046648654267,-0.5408671949010196,-11.292485199324933,5.145522970189232,1.5434244449783883,10.218281632875264,-3.8453745512815214,2.7105716005918206,6.955517203300145,8.771706851358637,4.285341170495445,3.8247072896288765
0.05468484223913306,2.4925169859936567,0.9919891436562223,-4.94583694243538,7.170145354109549,-9.266123924262455,13.79608249127731,-4.344530042526105,-4.0473173738062025,-1.4567446341852293,-1.573192284955029,5.670608322331383,-3.3686710825530244,1.9652495665839371,4.256272826625134,4.502722567879472,0.8366649683917134,3.2247246842594164
-0.48344828515738136,6.643327255344468,-20.636125482325884,-7.526841323531883,-3.226499357975492,-0.018211456161196127,2.136971279355656,-4.926176220971845,-19.361227953703626,8.249257613054908,-4.493907963391165,-6.3972095317023285,-5.723643364646942,-1.1248537400018774,-0.9819791451527071,1.7965604939869255,1.098782742892436,0.7690241997942762
-1.1194024978307398,-7.469175258170312,-8.179494283265576,-7.37479761947661,-5.909316561921089,1.3193232694230885,3.467997000696553,-0.33263618353890223,-8.99129374197699,-2.0651493733754513,-6.046838734141397,-7.039587809323739,-1.1445397282233167,-0.9932679332786736,-0.1653687007069018,0.8485438868078896,2.9232271618690424,-2.858783645193571
2.3460754638674013,-4.981186006405536,-10.564630574638624,-5.95457328918112,-5.761258708706185,1.1919191730483218,0.21074347971694918,1.1351974675250305,1.0855268790126322,-2.5166965020159884,-6.915597705896577,-10.807547077535087,1.7747363540874566,-1.3510070444067352,-2.669049610300226,-0.9780782878559489,-1.3073022202236042,-1.896885109422305
2.0026797829606933,-9.23291309464821,-9.334207398101503,-2.8755378756031145,-5.6144645627276795,2.8223094657203998,-11.345806291994029,-4.819599956701193,8.916080522763945,-4.824311596878038,-10.02992589822408,-13.501821613133894,4.694344133352053,-4.737191304469706,-10.250871501821187,-8.663842672822131,-6.123968324064879,-6.404019614849094
-7.423135659240987,-8.896066389852145,-25.386967503992242,-6.926887634665238,-16.699637355210754,7.284756768635615,-28.4672584115322,-10.872681499424719,-7.179648789515558,-10.355201622485872,-16.366409402325008,-14.73179737350688,0.38758852183546233,-8.026791076090717,-20.07876979787168,-21.03684814546247,-9.5736123571119,-15.98954764590999
-8.450662800578684,-24.576436276943657,-0.6165423163280422,-10.78429083380139,-18.606371287262068,5.790091620856772,-33.868215639454895,-15.852137262433349,-2.7673860532946875,-9.92953718311918,-16.94054467816327,-14.790464313160054,3.6984237219306886,-11.610454405095025,-24.73076570976795,-29.89383617541745,-8.921813235982407,-19.618135266806917
-10.357413634842949,-8.910025480383238,-12.563164774078457,-9.36954289385864,-14.752747890823583,5.857986815965524,-36.142581826532066,-5.40226185882006,-7.828053347010645,-13.313090025520545,-12.338286573159609,-7.72071683756056,-0.11949130192040087,-16.074143835520406,-18.640377083149765,-15.605592539674632,-16.766414699011264,-16.21553729023895
-11.385574765479124,-0.5693052494076174,-13.081556738442146,-3.463902771556317,-15.09991598905278,6.707206867620321,-13.903334568619247,-2.863237027446255,-10.15442811313035,-8.49395538358911,-9.591000631619451,-0.26095539663694556,1.1410387230376031,-11.652100456138824,-11.182755576672228,-3.46546340777833,-15.626676133166397,-13.692019878300282
-11.730486833211206,-9.320055203701934,1.734603144208163,0.3895647816104404,-13.983784653135423,2.868944376522345,5.114705260444659,2.897938325493519,-16.094257532410545,-2.894118301758096,-5.6713050082113,5.733306731192249,-4.141279488087285,-6.742904004912934,0.18119187197282294,7.600794930299893,-10.678452242962084,-10.192074441550513
-5.044421115244578,-4.9860386891350545,3.9552124165626514,-4.938150553843474,1.5840689142001052,-12.785790042236794,19.348991130102814,-9.603419354643925,-5.9206712899954335,-6.767637798334181,0.2020542749040426,1.4728568716695216,-0.829518379485936,-1.9325139785866172,4.904421562762023,-3.598538557318645,-7.488228295595715,-6.7899238661937
-3.1439877739027584,-1.0440283296602473,2.955424803830093,-1.868649971052052,-6.580586939136859,-2.0727947685619026,21.475169799019497,6.0201363253499025,0.24884381917817144,-7.419003457598363,7.052492027181188,-2.983573659643917,0.04097529643212039,-1.908513918429028,5.135396420083584,15.574066618533834,-1.8567151461525002,-4.657448062080061
0.5138589598515955,5.533361903990672,-0.19051445651204113,2.0784269900979586,14.062058130414087,-11.770102538824396,23.993409203099972,3.6741723914792423,-2.175617464660011,5.8941408446078585,6.579092699176281,-2.362482681796172,7.845322531384772,3.8761211469034915,9.565648353436218,8.672445154395556,3.774650417107142,0.5999649510802296
2.901707109894888,10.156214885013949,-0.9903398232663054,-2.4720554067540257,-17.93460357526915,19.939660492268043,14.501153446351143,1.816022638577849,-3.037640802503719,14.81214519106342,5.031944171049782,-7.210921794823387,3.8332152182470005,4.386056677888121,5.7926377881101265,4.31032331763509,4.03469979462414,2.341603204303113
5.67971701775941,-11.003960741051529,12.274886389095974,-2.336294062833994,13.349114517017629,-11.144290536825185,3.7407309277123124,0.15273528481112875,4.303510321374372,4.491038838007917,3.387616502572529,-7.567817059089437,4.997078208281716,-1.9412400029638577,2.7032128766142467,0.3392391107376014,-0.4906130757317182,0.8604549482317818
5.13687411088803,-1.6963088296886712,3.667124028031898,-2.1041937249223457,7.032717344767992,-4.825090866211223,-1.7448129153435241,-3.268822510619327,9.593784183963084,1.2007601777927182,3.9898882618986846,-9.780937039452004,5.672740715347174,2.7655897920993073,-3.9995727778201773,-7.244766677077142,6.6052200316463825,-2.378598031946561
12.89442981521212,-0.3979805801985443,-2.106211106752448,-4.412503480941518,7.2574554463026075,-4.169781027322294,-10.451724776894434,-3.4680835215197825,14.20040092775426,4.6483428332540955,-1.1691822906886948,-11.701826823108291,5.664865484185274,2.197696789297784,-4.549950628929486,-14.144745524030744,9.013364777920636,0.04644883348015405
2.194144482992309,13.887437149142528,-18.814853527038522,-6.5267958592033795,-17.422509990126297,15.626727318596794,-23.161290043706416,-5.132596284630207,-6.584035148305704,14.345505507172742,-7.987976969630694,-9.033561143453337,1.3600944471934533,-1.0081656013330376,-12.229378446258913,-18.212219399509358,9.858877491589542,-3.8762895541360187
4.188819175366679,3.073425317920969,-9.54417133178357,-4.736065139448381,-13.393124574319561,8.56766036421984,-22.19748139408421,-4.844316401137796,-1.1962239373485586,13.98341357324093,-9.728118456036759,-10.077063157911395,0.3757097557296701,-3.141007721270748,-11.607938048151091,-17.494025991669695,9.23942493539966,-2.134893616946671
2.7649095399159,-1.9801699684998044,-6.814186601269795,-4.118501372433151,-2.5297654789230046,-1.9091030232771908,-13.71276029448752,-1.431326998943648,5.6564403656640465,-1.711442371029792,-10.784211656173037,-3.3087347408609715,1.4421393228600565,-5.47038354190008,-7.959151819922743,-7.595559756707127,6.764385550480606,-5.667012124686898
-2.2729163111835367,-10.843806407689838,7.93007590901131,-8.873374112966296,-17.645475185581805,11.83359826737019,-3.8595884257144375,3.543872558234664,-2.627843268409692,-0.6096566501573064,-7.738242114692136,-3.0842788896834126,2.215576046392592,-6.922060144086673,-3.724467350227723,2.30335866219351,5.363501324184975,-6.367033952812282
-2.526108302493615,-7.306297678639627,1.6803038553589942,-6.988767226063097,-5.516825507139876,0.771598740316028,-0.5482670291730054,4.905447000544825,-0.0721004460573269,-6.246734844690943,-6.547338281058026,-2.2746957801463865,1.719421324629755,-6.714776692571203,-2.9078557491541073,7.515164321608271,1.0328150797369893,-5.9927791822390315
-2.5845949566066766,6.972176723162892,-15.700068007884214,-9.988279132720589,-13.019570274638527,9.339189599535732,-4.755398061105497,3.2393681960915837,-5.23128556706971,-5.829502561349481,-4.574747327932093,-5.665229917813655,-1.9018429542366435,-6.7040301910101805,-2.5795882696565076,5.989050874753026,-1.3447756155840314,-7.571617986814083
0.8719730048657022,-16.05598862884024,14.578922032001477,-5.957649813907869,-2.5555164594426216,-1.0384176958775737,1.780991036704818,-4.7747011316950605,5.430133666498566,-10.686246560184406,-0.06263595031564817,-1.2439945619966615,-0.15201428328211242,-3.1788253033337917,0.09240638778968613,-3.3492110515161304,-5.284938448389093,-7.4901937030276216
0.7145675241531606,-9.885869338558102,11.461350929310179,-2.8071397045365742,-0.7852623913860857,4.697923738346478,-4.669955759147572,7.133197455246451,0.759355760413805,-9.683972690552473,2.887364880370839,5.520161460018546,1.5977109217556094,-0.9243889281114308,-4.36467545756296,10.06725650694785,-3.8539625054226923,-3.8929885043288315
2.0213789282298675,14.837844923954316,-20.658182648075808,-4.052410153094696,8.892974145783315,-4.702245419052237,-6.822843965186999,-2.8344220371367497,-1.1769190764073567,-13.662677638032438,0.1736243168345677,6.814603448500373,1.8824460408299544,-2.968107479496704,-1.9857795918268657,-2.3950962451275246,-5.9386903642338424,-2.639445573417289
4.206449492052288,3.2315088519538353,-6.680877107587849,-5.982448973029966,0.599860083290535,6.6991400638580725,-2.822202421375949,-7.04039192715501,2.453402564158072,-9.145580084310554,-4.981157861724789,6.4479676451465835,5.389742285934554,-2.4739344520660373,-3.7085752916033363,-1.7708267436742355,-4.703068022369761,-2.7529658466819042
6.000218194531655,-12.673133489440316,0.16979763712354878,-3.323719387281205,-13.750390527772993,22.886226992137473,-13.566813832370459,-2.9455833194166607,-0.6545349825097801,-7.949252685688471,-8.475362106873305,7.252312729885906,1.2795704037119477,-4.324750988473792,-2.0134187192609594,-2.317961383424751,-6.006547272807133,-3.159292109938703
6.719071349775211,-3.9693850691122945,-3.2312086289642434,-4.865398467941453,17.796111517778073,-12.098854228903475,-3.8022607672860396,-5.393944641840022,4.831553715138297,-9.780707590203672,-4.84016040864483,4.442393467347875,-1.6588928606253721,-3.344689826020087,3.978607843863376,-2.47397327749248,-4.380281625912637,-1.026327442995564
11.538860584913877,4.830667940708644,-7.899387366420537,-1.2323229088499161,24.339820038858814,-8.606283338628032,6.744566028938806,-5.596250796092335,8.75528453761206,-3.6046047920564064,-1.9858350657175252,4.072973570394284,9.953443269816251,2.4194120462988726,2.157942870465371,2.3510537464755004,-1.1914659725140813,0.130272321286089
7.7640719979663455,3.3753123421836975,-9.342487136200814,-6.291870863804403,-1.8342515554394208,8.363572301180199,4.206239707436122,-9.997883742634643,11.116678953918639,-6.120401740723288,-6.064828974230691,-3.4264218989394646,4.475451628109589,3.5924209575040553,-3.471447869467772,-3.8587480056229904,-0.1510805357925371,-4.3770412036751285
6.332365730091389,-9.409679093950796,-3.0682575855195973,-7.348514495938053,2.556088958956522,-2.0102092806620133,4.696259094503555,-13.911242674223185,7.130529770215334,-5.706810497297105,-10.8270519641187,-4.090752754236059,1.145687935575937,-0.11862575542077991,-0.11640183706711227,-9.57976424453063,0.6940438210387239,-4.196524123551065
-8.283844710637888,1.046542210097062,-8.9988845161221,-12.60548170633569,-13.75949362682259,6.659811173948166,-2.332440623853038,-8.449443578330644,-7.207107690845526,-7.6373314162196,-10.803675730470163,-3.193553885582501,-10.192271575785272,-10.178582461140806,0.5041508701912072,1.9851365116612394,-4.906173504503986,-7.336087419467024
-16.84598936578582,-25.803813405960806,18.178815528240385,-8.195350495335985,-20.604777478780726,6.736505175356005,-1.254650521021171,-4.4524655857204065,-8.360694799145584,-9.9587913297396,-11.3658810819032,-2.980970528172569,-9.22563544100287,-11.548144267836847,-2.3910528290414357,3.5894441277012916,-4.842157536189534,-12.721471998590161
-16.912628603223055,-22.08860666279095,11.666939133790585,-5.641710694114759,-29.405736278481598,15.017015267395571,-5.547168882100243,3.743870604407341,-13.029681279875112,-6.128102531845329,-12.708988573803948,-1.1092344409319277,-1.9115439658473221,-16.92280330570933,1.061417761517303,1.5809102212488293,-5.8522767121306,-15.4697666924364
-22.546479881392518,10.922622355449812,-21.796140015058356,-6.60471980058595,-27.662195575858178,9.821333643494174,-10.327139530165486,-0.9505088297358313,-8.030247800834191,-17.141659285778104,-12.684532990674969,-2.1682772644171564,-2.9963337260471277,-16.829743517240225,-7.400435737586763,-1.8919973114008095,-8.8154346305122,-17.53410196464911
-22.028616256690455,-5.97054241640673,-10.23667908245373,-2.978760747381571,-31.39003923400948,11.950568717579214,-16.473513674960742,-7.011959538727094,-9.182923284783904,-13.799776677254588,-12.269096814759061,-5.962801726251454,-5.25334940891203,-15.175258071519668,-12.63966451259822,-9.856671737095812,-2.403316942482723,-15.105801468279918
-21.316160736610776,-7.923349696374872,-10.686811252066821,1.8181707185540432,-35.901708394969845,20.135178890406568,-22.32614203690921,-13.756846037702246,-6.91722366278928,-14.364430759391421,-11.853316124261962,-4.973180420171239,-4.092694314771665,-12.838249027875461,-11.531221740371928,-23.387352496161334,-5.561508315739648,-8.67312931839592
-21.776321523860087,-12.025891545506251,-5.958788534223062,4.075106121556335,-13.755388938804277,1.4645140166970974,-11.185584147517062,-16.497565225612153,-15.784126137384677,-6.042435489870195,-14.073955083586256,0.2146212286937823,-1.5651976900005642,-11.283563731336445,-11.008807806267708,-16.116455067635407,-7.254666773318215,-6.146337818077837
-13.545665687339921,-6.5592260603670995,-14.5099394604416,8.479643098742358,-12.412751630876691,0.2751956634200887,-9.810094733905913,-12.109037595051156,1.3263371504058643,-18.228747846789204,-12.290292635879103,3.0575152227432527,-3.9209712117170654,-14.80812284937751,-5.701247835089427,-9.626346400231508,-8.459351958978285,-3.2284617349373805
-10.58924787695613,-11.933807231116194,-4.699173282125447,8.68405508175111,-15.564961138826687,5.9225369675811725,-9.605827471520234,-3.032674602273912,-1.289629066848892,-15.082953690426162,-9.529724121651244,7.364133570368212,-3.2497538306371063,-15.599286147218741,-3.518819632479634,0.08693336529580886,-8.19896830430337,0.5688122695242939
-9.977332694729796,-20.62997476950345,9.117803690149112,10.450175679961706,-19.696344320127015,7.761850341771232,-9.498582952863954,5.8486689902822455,-19.13974113224881,0.2699234913634978,-4.9133354338626685,12.743824980515779,-6.582918322137086,-20.20010008494503,-0.35989901596293095,11.558509482109308,-9.598544925759853,6.319743898212998
-3.2136925632308486,-11.748957405277016,13.85483426962734,16.31713345053242,-14.064553515957519,5.402510197147446,4.0860279907561345,14.1443946349243,-3.4927586327787887,-12.112107153742333,8.394909488200177,22.419274049864843,-7.279753416028725,-10.250886304328828,5.533352356232642,21.56566667099871,-7.286887156948433,11.387598603812254
-12.46662933197694,7.873218496944137,-3.085951572429277,13.198818874638217,-24.451234159238183,5.973536228992932,4.487404562186276,15.40912403420452,-18.802761524376127,-9.650245415198516,8.51967087117641,25.452792535468273,-25.653083685826683,-6.5527191859310605,9.375704130124669,24.24892940778366,-1.068660180014482,9.91293624126698
-23.282791338720486,-14.49861074925804,13.179072984574438,11.251664909100217,-34.547543992459694,15.725027775520303,0.10407359234395219,13.353883975494218,-36.7489762024025,-9.33691194597759,8.937710599778175,23.797513354193963,-33.08920545407413,-9.39854665348417,11.26481282329734,25.858380635166295,-5.201874352497245,8.145876222561876
-12.810260328691848,-16.949421386999845,22.317236496750063,5.104524130406061,-22.087516953039387,10.535526308235928,4.998709705092816,12.177990031028177,-20.70972074810515,-8.340005555927302,6.035685724006921,20.676119491387997,-20.603620366015747,-14.296086368155942,8.563918066154088,31.960497759343106,-6.1120837422317456,4.6215762233048
-16.303472511043136,3.0599048316739257,5.968857381695091,1.5934669159604749,-17.930995996441666,9.057662810159876,11.260994805051805,15.201838172625227,-11.994189501786899,-9.589231156407525,1.4737709141999202,14.428406362181097,-11.048252907578203,-14.799900226750031,9.964557155688135,33.4730957700446,-5.166476324275725,2.758080617324662
-7.590144654116328,-3.8854311301622118,10.228360840595647,5.796724588173523,-19.734190858076953,11.779727945679248,10.68763633633888,16.175365878997653,-5.914780862095576,-10.05717097392217,1.990342945549827,18.531118534861065,-8.7200564994031,-10.519329089595056,5.99392750934906,32.15399738259836,-5.0017903786059925,0.6022577203919797
-5.420553125231849,3.133181759802593,8.142180707143954,8.339183181834722,-9.4304135879902,7.666398408888993,6.4036383082834085,10.996980935110647,1.6301606278165117,-4.37262096755175,4.265030942583849,12.67142192060568,-1.3141683097110004,-3.7981296549412704,1.6325718492348846,19.11633017972172,-0.6374601557192734,6.552695912026772
-4.228196163617633,-8.208950158759707,12.698764755169147,10.783395866792397,5.070066355677827,-3.8682715240175245,6.5145481373333105,4.744918707936441,6.7343559868694065,-3.3755614895546397,4.098543919044055,3.5876758831326705,3.5520959206407667,2.3363380422696185,-1.8499614842042276,8.422789198236364,0.9928360763170483,6.8396761295259445
-9.384238104007792,19.70625850347742,-11.551680157909109,0.23857049969758082,-1.2331235980646724,6.76601353632388,-4.702576741118969,-0.8229486027252024,1.78053231795392,0.0630517273397242,1.4908732326091725,-4.325546536734937,7.538906164884656,0.8527474220512481,-6.016198890225757,-2.3680901022817213,-3.040612345553119,9.2758394112506
2.1585598643062447,-11.071886553361768,12.052136668053214,-4.837950261567462,-1.9723833549841387,5.584359583477768,-7.520920654216717,-5.804245871429891,4.054140624292483,-8.314781743160875,3.473367017119428,-0.9118661809084871,-2.0492550185560545,-5.319137845434791,-2.3699198283491922,0.02512239520132109,-4.632191209882561,12.10336775454317
14.286683485210563,5.90357080403335,9.192637813899195,-3.6648745171016643,17.110328694211447,-4.2881866764499215,-1.3545864743950786,-0.3355084984436715,13.555212025730977,-2.0437843305988572,7.897545288443386,6.309044602380844,4.18258129921384,0.12955701995104008,0.2996759236389046,6.520232802134068,2.565874590256308,14.150389053977753
3.7576041645588347,13.014583569390673,7.311609193481534,-3.5665026004590525,2.79155695540479,8.301192368142203,-4.172649223930289,3.962025257565203,6.845920087257776,-4.268810134984952,9.099248842225828,8.84093553239087,3.7731243896372337,-2.0397099464837503,1.211322945960501,7.937387968083769,2.7330533470551748,10.534036501126733
-5.6001752891656835,-7.512537021434724,8.166849146572243,-0.14820583987294045,-21.295511502701256,24.211577669564015,-13.826691026136459,4.060998234088217,-9.237662146042677,-9.03270641452743,0.5353982083365065,12.640901348252683,-7.867549687916146,-12.998798163638448,-1.4904796762233898,15.507200902609062,-10.087754717981468,10.238841777872421
-18.083580607277327,-14.856835411349017,15.176335653506682,6.980677269357414,-22.04488770270442,11.50888576181073,-4.828095728033227,6.60216949808587,-31.570455757482502,-3.1516474173745177,3.9836579243410766,19.955042154676576,-14.137634934861916,-17.80603935367353,0.10454078224583396,23.077205335465774,-10.505514645207775,9.553829709538572
0.19463945823233253,-20.053615846341437,19.941458173761575,10.39818918906183,-14.886478459864623,13.650808135614854,5.635318717223953,6.019080547161412,-12.690767850535682,-3.2274179359848176,6.650851859264714,19.748004901895705,-7.029206169446805,-14.312928670708482,7.461245803099832,24.299617977208815,-9.946159376031929,4.475051235886366
-3.305363318474072,10.003116152835688,-1.95226519993333,8.737152427843494,0.9609952686776424,3.586147503551371,5.063304167799567,-0.4226527158634834,-7.4822172793760044,-10.334221925610763,8.927598115728111,22.371481151458816,-7.343371250345639,-9.16015740497038,6.614573511633367,19.076749367865986,-6.749484565511508,2.5221699434381586
-6.903554146125815,-15.605974758609932,16.781299614322407,6.001565351149852,-15.030410622442336,11.295826456936345,0.38950100352087347,-3.6408278959554012,-15.944773070595017,-8.651474186447176,5.833338378856677,19.036244938853187,-15.568427803511609,-6.058684218839055,0.3965929027678645,14.244608061660886,-8.435113359410957,-2.8478658736677587
-4.740451663178073,-2.3481752816954025,6.414475267754652,-2.5937701462037372,-11.688021385120383,6.896572557653169,-2.233714133390182,-7.834695326613582,-10.14829075019993,-7.163655448328905,3.129865015772374,10.914159359367837,-12.661125162074304,-7.352259044559511,1.5028042722744241,3.6507216469072947,-10.12013585088124,-4.798998256327403
-11.660014984659336,6.41649889286016,2.7875994734208254,-4.060343328094029,-7.957418897557879,8.84569445205748,5.299188335527125,-9.000255244328745,-24.956552984235834,-0.10892766145724586,3.6492374341441955,14.899983265013226,-13.758421463781254,-2.3961520654469677,8.37067738446919,4.971104790476082,-13.855341657228315,-3.917158251341788
-2.759502597313957,-6.206720296416407,22.209459877889344,-7.4802925987193944,8.368634787952114,-2.2907026297800623,25.03895618400695,-15.145410003096009,-11.052370724340975,-3.7961020772923915,6.121889179774499,14.489528007237968,-15.539961739841,0.31344971903774166,14.066505807658372,17.131484552247052,-13.97655893037194,0.3836151992423825
12.585960572693597,-10.529858848553866,33.038891672424704,-6.017544593597494,29.379883798608496,-12.059277828625211,42.6298348776799,-6.933894805730659,-8.670702972550165,17.02929676642015,8.106360121076097,12.612494887963182,-4.23601263287188,7.026678260938013,26.207585886365067,24.018294527520503,-3.061776538906459,7.908020433222739
18.751154536167967,14.150545124994622,31.760157155529853,-3.2854040228445203,20.505509777935764,-4.248851117552656,44.88796075299243,11.630355154819423,9.825620261476697,11.975906100439627,28.450576662457646,11.124349769419107,-3.772728314750351,15.985730950433108,23.797495585873747,36.76447634665752,9.318569789239623,19.339674628153457
25.892502963176206,17.052487675235835,41.42042188943296,0.7161609019043329,27.254041785583773,-9.816931067563779,48.512736577164546,28.047181185641648,25.1980532337787,18.05604040070653,30.923498938980206,10.903980856231923,5.47908927717055,28.264879710748055,18.848128509085747,41.4049309838407,17.79332703912999,25.694077844507234
29.42011098422622,29.328808737794066,16.706431289833052,1.8855569885822745,27.84782635976029,-7.083504382905279,40.61326777049089,25.12885294813547,30.903555886697845,14.566289494599875,26.951063428811548,4.9199991902772835,16.195102026622447,32.047574777224696,5.10938031716816,33.15438557448469,19.43278554818013,23.260247247139528
19.275250466087872,9.963278159639826,22.658175091599993,8.81669736002767,20.82202035884285,-7.865162662371333,29.099756294056984,19.574875803837404,20.887376269334702,16.155344868758036,16.728565640571226,6.942114298645256,12.066459790600664,25.771329055301862,-0.13333849311038026,23.927039441592157,16.971384394112903,19.362523757281295
5.614345635842943,23.41002498095563,-0.39329314734029097,7.544557255351732,11.547822764711384,-4.935238165113859,14.655729215256482,11.775912378070933,11.263068790247635,6.807367293986614,13.830410624918668,4.274788015613873,4.616768399476827,19.885557393220335,-4.9856303977069825,13.527530797952974,13.534193393806461,13.024339493389238
10.801038361933987,-17.05100367642989,28.41256619452789,16.135850759790983,14.08797169305365,-7.668878923486318,18.863467861334353,5.93127702821145,13.261300145783977,8.886009065427334,4.193862118028843,11.957280310542513,2.7328747034571546,16.538766589121142,-1.146598062854328,13.088794429407216,11.172046971163297,9.03093234410494
1.0457700333320723,18.562664470876534,-17.293433804897703,17.500505582885552,15.844642415179663,-8.25347061871489,9.495836613101766,-1.5723352292197346,8.815414236600674,3.250382533774019,-3.6848790212050826,11.434588532989473,2.1178306094213317,6.9417963686962025,-1.7023897753431854,8.157435977590335,5.099737462361803,1.1322146612995692
-2.459710183447096,12.280499266315722,-24.228387706029807,2.4587264556293187,16.329570148851158,-14.892268193357562,1.592043953251058,-14.44588724132614,4.175531458565738,-3.9470456727866656,-11.173044528879668,-1.0043134244656962,-2.3065739481471437,1.4464033137839056,-4.113915926726723,-6.442454771473827,2.8369321594568078,-8.230363232044144
-8.40692154451674,-2.1079015175848665,-6.845716079035476,-8.77430204047354,6.753582328210134,-7.3701240550878975,-1.137001609069383,-24.97438637515755,0.8065420986052976,1.1611520948199243,-19.149578272022854,-8.952957103044461,0.7879512313633317,-1.0216118320964365,-4.474879070930629,-22.01939003942345,-1.475812367569358,-15.443459031093475
-6.053492977516497,-0.6763721268283714,-7.724270532331367,-22.35098509211045,0.007524788445377517,-9.515531228722171,1.4062699426820275,-32.47419739751888,1.5405439224979602,2.461476782049232,-24.977746295696527,-15.829395137665859,-5.493390654379738,-8.958436847214646,-3.6642115509309456,-22.45989484257098,-10.768207687712588,-16.991389069463537
-7.899595541768807,-3.054099190274872,18.253746119563615,-25.087495268162243,12.302606584369261,-7.4610948312046155,20.061777943890803,-31.28114043441415,6.4752170492316905,10.01270317991814,-16.157383707745687,-18.117980402071986,10.978789013556074,-6.348167034782823,-1.095980128514181,-9.912492587600589,-9.024364145866041,-13.16712244444603
-10.136557692666859,18.884365294543787,14.153790791752648,-19.815874450743202,-4.506413959219649,5.531565231365073,40.57140042974966,-12.313014814597864,14.634005494310035,3.6973638345406847,1.3543606836092432,-16.600006069596127,16.414904106295047,3.8795003863212365,9.186923621895723,-0.1977912271977651,-1.5177798202754778,-4.165971413985097
-2.0220083571406753,10.743678600971394,45.69944021394084,-15.325286605283708,26.33947110952176,-27.569674991822037,49.653590766389335,-0.17954032932685182,18.692599164157542,14.765962033526833,19.06123601141729,-13.423973356633315,12.865758946771429,8.443147384013178,13.414744097778112,13.520196126216359,4.231918783076491,6.789360913494792
-1.3296366277941867,14.712002673666703,49.60839462053175,-2.8265024158212135,21.342918133390526,-17.212671213743384,54.82789891783214,11.467066727618064,26.268321170069328,11.870389035743331,25.732573866463643,-3.70702582170971,19.667577659925154,14.569480966633362,13.247648119153554,22.940505819401956,9.591959083691412,12.374545430029702
4.53842551572766,27.56664995454087,35.060395690218925,-0.19085558062971986,13.023978670512243,-10.956745991508438,53.06683688785973,16.474399183282628,21.345320439977,19.620420573579924,26.348889881233728,-0.34001531494629234,17.87475001296884,14.055284782132127,13.275534192945289,26.402899762116324,9.581814941938951,15.616972560429726
9.722733111430607,33.584741800458225,25.981502164597348,9.964764420319998,25.601796272394516,-20.520830921990637,58.23770373545759,16.89329987970621,27.752102779363696,14.968854541790153,27.16024948860104,9.372534687041053,19.10853819592459,19.69375616186498,16.428118730947737,24.981555876846425,11.135204042784354,19.934662760823194
2.5043766670148884,9.328437745011893,35.45776198099364,12.30812517198671,20.40392972514408,-15.924002218581018,37.527396792077944,15.458215669617736,13.652260990904871,12.369060377774815,21.91652656687095,11.660853629449473,10.282795889394063,12.929957380821294,11.767718539798794,22.485068158260194,6.146551596775915,14.292290012578938
