Fp1||F7,F7||T7,T7||P7,P7||O1,Fp2||F8,F8||T8,T8||P8,P8||O2,Fp1||F3,F3||C3,C3||P3,P3||O1,Fp2||F4,F4||C4,C4||P4,P4||O2,Fz||Cz,Cz||Pz
0.05519215905773045,-0.6596541848787592,1.0808246179842929,-4.156036318617488,1.3072099962853745,-2.7224994940722844,-3.8428875472962094,-1.362295343957431,-0.48141366606488156,-3.0739955435632353,2.003681455789044,-2.1279459726687975,0.3122933021940373,-3.8807258490185674,-2.0713396030882336,-0.9807002390104653,-4.0060832604827645,-2.0990730333327488
4.2979707706319505,12.259869451493376,10.79481999386637,-25.111209568407666,10.38166724849943,-9.392294228132766,-4.2283872295130625,-15.489656812519343,17.164196123397137,-7.096325962164332,5.552415818864752,-13.37883533256436,22.49269104888225,-20.16648047695617,-8.665713156840193,-12.389168436634709,-23.566337330372605,-1.2936737913559408
2.486833127923873,11.995792851310831,7.519875702974628,-20.96958664773495,9.299700011666761,-6.7855104634736385,-7.444595671963324,-14.969734244619747,18.891629138982527,-12.584180705400918,2.069747374416429,-7.344280773571665,8.73471673188194,-10.769100314270492,-5.982480097137769,-11.88327668874717,-19.689113478829952,-5.274372935922216
5.950134162831477,8.313923601023895,8.7366164463529,-25.423259404601566,7.3388846475669105,-4.961066935363213,-10.171185855422,-17.67401071510841,21.10737206747951,-17.584494286899083,1.0284352849933933,-6.9738982600122625,4.25384114164936,-10.552530879328831,-5.349975815201164,-13.818713305330109,-24.30863355373907,-8.279466620957017
4.238552244454388,20.745843507490605,-10.555449882636815,-28.608966660053028,9.38219933840389,-5.3840004870672225,-13.677745015189501,-18.817372794304667,10.82293194914396,-16.43320659451855,-1.8685026895697234,-6.7012434558428,-1.59469191654963,-9.653472152319551,-5.010398419931391,-12.238356469241486,-20.627906664112587,-15.680232743020621
7.801521552608055,19.701291257020358,-12.95351918177456,-29.64795822034049,7.421800623405311,-6.491957093262446,-12.886107721387763,-22.98984918371675,14.015254279667406,-18.017260199120955,-3.6913760225423964,-7.405282650530104,-1.8772449667972104,-11.587733833747627,-6.526309046041343,-14.954825528260551,-23.393391429220067,-16.832079075739017
5.4084573111338745,5.766247373818452,-7.442213546885796,-27.95445582753016,3.899223222530443,-7.210870341856502,-15.120641963661924,-23.35551194045206,9.687911696387134,-22.727373587893382,-4.147253134454948,-7.035249663538989,-8.215150641426337,-13.035083014043586,-7.065670349160818,-13.471897018694891,-28.015313226031104,-16.03204678892771
7.020503643903938,13.023297353704018,-17.361842399471566,-34.46629310442306,5.162311379409365,-16.72073528602551,-17.35399567952046,-22.55123274520467,8.387927061543701,-27.340928081173864,-3.5291488106145925,-9.302184676075646,-15.334951938093532,-17.413669933627517,-7.800412125127691,-10.914618334378646,-34.78678360847085,-14.647443901136704
8.438431580932171,22.03858517264393,-22.790335699994607,-34.43731639694367,7.304846474952042,-22.03323855789757,-13.726742728713925,-15.401262780610445,-1.1153526392439268,-21.018000400914733,1.5809164039729033,-6.198198707207321,-19.428057294256465,-15.836768539213654,-5.2148924063517725,-3.376679352334713,-32.379642094252915,-10.529898740072596
13.47094600772752,5.858608867406283,-3.805622727333425,-28.941924175121095,6.127636456554493,-22.757913700108844,-8.535862318598339,-16.652030818363755,-2.610755250631347,-12.64552982846762,2.2960468601513755,-0.45775380840121827,-13.170195770369588,-19.73046157657325,-5.266269752134091,-3.6512432813268774,-31.048087688562184,-8.855369002571441
14.207822096766037,18.29281759931103,-21.932187255719633,-30.968757276459044,5.732396906617296,-21.922313438208224,-8.226804302822528,-18.295710670684954,0.09305486261371976,-17.751180949737122,-0.2119056656752374,-2.530273083328318,-8.182697214905037,-23.235410526883236,-7.368633837525831,-3.925689925672389,-30.694597741883626,-13.82323375034522
11.235057457849315,5.336515427373989,-17.0129679703933,-33.29130225620197,12.173997871161149,-33.19868230065158,-9.18627165686345,-19.74646278943643,-0.23060734266869298,-23.053583912991897,-3.7945117666143915,-6.6539943191196915,-8.66490236310559,-29.183814377339267,-9.178234693139323,-2.9304674420949715,-34.639669199804445,-20.550700888669777
9.533246996393917,1.7558921919712978,-15.122687131040259,-37.17926685105005,17.053963455653996,-35.10247634837235,-14.441694037016532,-21.785654277608838,-4.558331296215727,-21.130832110408736,-2.299374423083295,-13.024276964037435,-10.417585374711022,-30.056150192208868,-11.085738725957249,-2.7163869143562267,-31.262163354111987,-21.908848889022167
12.813433932172286,9.894767989053733,-28.761640061191958,-39.410100410608315,18.41922815579096,-34.665209605723,-17.352385174618817,-24.02275754984319,-3.1243547501237012,-20.0885983881379,-4.5157305519835305,-17.734854860346665,-7.58133784502242,-28.2939829650352,-12.99352327082114,-8.75228009340581,-31.890508920869475,-24.343180607742607
13.067731553846343,14.518569659628435,-35.27333449277726,-40.27692846611375,13.926094991414377,-33.64487583939595,-14.500364574206857,-25.578954421912396,-2.5694155199943687,-21.294170235345796,-5.658390848838703,-18.441985141252392,-6.015679147466395,-27.608426655458633,-14.999280749490428,-11.174713291576882,-33.98573391932537,-22.58026851026684
12.639972442272647,4.201375870151583,-22.841286091405944,-38.60800786865213,14.024030372104454,-35.06901702190535,-11.159190964001585,-24.403531843030336,-3.967759936792924,-18.88816102878571,-7.192260999386255,-14.559763682681488,-9.919945980026942,-22.921396870281693,-13.29439356531325,-10.471973041103515,-28.66111158093942,-24.139847370832275
14.752907631578955,-0.45099599559227466,-19.395709462858612,-33.622223745451805,12.463026525535026,-29.953270554349636,-5.082777438698432,-25.574789726059443,-2.534169610205394,-19.316058010367538,-7.652514070897315,-9.213279880863563,-14.899592762661882,-15.01427180575224,-9.539077139802608,-8.694869485249509,-23.14344050665835,-22.576593404268227
16.1838760560846,-7.348788729097372,-14.487325973259654,-29.4213454483428,14.126057390647402,-29.040134700606046,-5.548650795287358,-21.866150583625696,0.6571097702416434,-19.550546190418356,-9.968920988201031,-6.211226686245126,-13.727998254674187,-12.67636245765109,-10.178775717771362,-5.745742258670088,-22.706362673302614,-19.160142511734307
14.491477280876468,-2.2339381705274253,-16.026510706366793,-23.564070867626164,14.813926365593446,-28.13047073428012,-2.8887366207672986,-16.988701610276266,0.8208387331829408,-14.513496556767366,-9.25863298344757,-4.381751656617174,-10.311522346004628,-11.708498423203782,-10.428292973381199,-0.745668857037034,-20.90458935793972,-15.35544422992353
16.121163896783784,1.7097947953871269,-21.376601323544648,-17.515404544334267,12.671221863657896,-28.493970530784836,-0.6187558104892292,-12.3097419578203,-1.750019347536547,-10.845707396986116,-8.060789026641057,-0.4045314045471904,-9.63075877698921,-11.81781688066206,-11.654869746140857,4.352198968457796,-19.886711030541456,-12.334472974927767
15.40882735726507,-4.892698922060401,-16.37732060733947,-14.595845050996548,14.534070384967716,-33.939424272727905,1.7495376825507583,-9.587199397990368,-8.617997788367106,-8.742564599004314,-6.08245308183153,2.985978246071012,-16.76395769373895,-10.074693938636301,-7.217811714359825,6.813447743635869,-22.094289390951847,-6.97226064520629
8.448197048203085,3.056653777678026,-9.915616419376052,-19.102465259272716,14.73840687208116,-30.50191041698712,4.313758527125855,-14.58296665012002,-13.630668048381576,-1.2704374397745513,-4.98384334657063,2.371717981960785,-17.84376628047683,-7.455813166708192,-5.711031544024104,4.977899323407962,-18.835901726112596,-3.858798610691478
11.84112636787238,-3.0558311657009556,-0.23374130488245992,-20.09772741011623,18.362516831823548,-29.705174498733896,1.8980029923617927,-10.792969229405696,-9.46370830534014,3.9533031318525165,-4.179049400276451,-1.8567189390592793,-15.506988392153556,-2.3987546899715513,-7.03690255268728,4.705021730955392,-10.892924037363933,-4.947317212649372
11.622594610571085,-12.683084108284678,8.078300767640611,-19.632569951054194,16.714943532405407,-25.982854360117877,3.779712441594566,-11.30342540897017,-6.273531810546822,3.217597407832515,-3.7657643841414727,-5.793059894265298,-14.343581239147351,1.1900701738714723,-5.628964133758979,1.9908514040422562,-7.445295861168338,-5.062029673676866
11.698946054379764,-0.23874352365930207,-6.268966005684869,-17.609457755800317,12.627842674746667,-20.995257380698924,6.052532859439921,-11.817473164026413,-3.864830939643105,0.3310333319883725,-2.47447243510774,-6.409951187994006,-12.107458743597526,-0.4004321045538006,-2.7567970152271295,1.1323328529333514,-1.7547429404016626,-10.648418162066825
15.781208016861243,4.491613348771036,-12.318124684156771,-23.403653146073037,11.960758979264124,-19.137104373129773,9.107050323748084,-15.753209341116502,2.547616146911805,-3.9251894089158186,-4.504490473430334,-9.566892729152842,-8.408030383955998,-1.310894160826841,-3.5962910580371625,-0.5072888083222862,1.1004246077007895,-14.284563574518469
14.396611400580051,-2.3006319696568136,-2.5496141484839017,-20.218140690471245,9.147280627547183,-9.861478565634055,10.20880274313171,-18.227820231539887,1.6355046007528524,-0.17598828227805186,-2.6291791373212012,-9.502112589173116,-7.737591114502334,-1.5414106268153303,-1.2137758769705416,1.759562191883051,4.342806790056876,-9.91575295832582
14.283570461705072,2.6270959350271816,-6.260839458944448,-16.256282991149735,8.093795637274166,-7.426525790819694,13.361711600454067,-20.41326933087469,2.6763131835158456,0.6409110356744439,1.198274068340571,-10.121954340878386,-5.310949022968913,-3.63117491425027,1.265672143338227,1.2921639100027846,8.069958170783368,-10.237557218692958
14.270220985554648,-6.409155468301274,3.0133658358682887,-15.815129561028323,10.06993207273398,-7.0471291193304175,15.343025104302136,-16.743133343257327,2.9356190661196306,-4.404280673594586,2.09495016085501,-5.566986761270354,-4.05787209452269,-1.3301813071667237,3.2560783212660045,3.7546697949578105,5.1527628148569455,-5.777237965532006
15.430825254029717,-12.123933194906941,8.280475756448231,-10.98450887450357,9.997563909498831,-7.55150453078334,21.914503045741903,-13.272257293725847,1.241523714070785,-7.987288121765114,7.580463901117339,-0.23184055233732437,-0.26740039278705385,-4.5019486462657925,7.88246255463474,7.975191615233694,3.892030030646252,-3.0779238750339237
14.542703452477056,-2.4076446427941267,-2.8621199213431145,-9.870115233849257,6.314242780450826,-11.381200874523486,21.3571692173453,-11.172596414852087,3.941775042432525,-15.284024940529068,8.279641771713905,2.4654317808932467,-5.1702066131672595,-14.416112023302443,12.11740756176539,12.586525783206897,-1.3764853804370745,-1.6513839860778319
14.04732316321243,-1.1864034877379979,-4.046906579571429,-11.007180822317833,6.1490581971374665,-13.555775196483793,19.62809786343734,-13.66691567027301,7.032400977461052,-17.21237285912478,3.704165394039479,4.282638761231189,-11.344333458617003,-16.717065441502818,15.179624529452429,11.436239564565398,-3.62152003356619,-4.232090385368042
9.35479315002187,-16.46811194188024,1.210363962617187,-5.6066036995300905,5.498116297444684,-18.46992400760667,18.875710853960225,-14.895807355682933,3.384382234581492,-14.26067027574305,-1.849053535940759,1.2157830483544592,-12.344399391983213,-14.822908895055885,11.307280340419407,6.868123734812946,-9.581549505132196,-5.741893543241457
7.789464950716729,-8.115406521708161,-6.426611932480724,-10.95389490349371,2.9942812026525516,-17.920491719608513,16.463200291889095,-14.566352099396056,2.07988487442129,-15.804108056850403,-3.3994983107876333,-0.5827269137241231,-12.174399415254044,-10.198584815517908,7.629364018799528,1.714257887585383,-13.983144903280094,-5.497239803300238
3.2965781895072332,-5.230261710265413,-7.328697465037554,-9.568406320706808,-2.1436375266848717,-12.200542485024059,14.929618020492997,-15.120044381003012,-5.767948736335499,-15.78795222615599,1.005958686550009,1.719154969465439,-12.982829799827886,-7.1411072960410005,6.00134706696538,-0.4120163432416356,-16.924050580875534,-1.6426801676417604
3.3957968658527182,-0.48831514401558274,-6.671819670835793,-9.360498590281537,-5.7162865847507245,-12.247830453738798,22.185191120744097,-15.385039408130215,-8.342534819870234,-9.329359775122072,0.9179129529282379,3.6291451028118082,-14.769714856334046,-1.4512641955448462,5.4466269740160085,-0.3896132479410318,-16.353538115037786,1.7201146988969214
1.0557802065881638,-5.80377951082603,0.8174748054121839,-11.697460059143204,-10.262697737015994,-14.937391494751001,23.874181473021853,-14.384804970856806,-9.452527508819426,-4.436307469763014,-3.175372218445304,1.4362226390881503,-15.191291447327062,-6.703549198615355,7.332387450049611,-1.1482595336394847,-16.080340971533886,-3.8074639238325148
-1.184355506605053,-1.547417697862101,-4.001793484112833,-12.67305738657119,-13.43901674401199,-17.046600016090167,24.586452120739498,-17.881190023295744,-10.9534256120684,0.551346128487392,-10.102028429414782,1.097483837875175,-12.88037214789507,-12.155675779828528,2.674092216548754,-1.4183989514159765,-17.37408882915379,-9.436259956221589
-4.496489582303466,8.960438190008489,-16.637428607680512,-12.287363102262226,-15.342833873315147,-20.333371435176577,18.364829777911396,-16.49909088810334,-13.528834528216692,-0.03058611636383901,-10.193962942957414,-0.7074595146680234,-11.743285810705768,-14.68265819469547,-0.5203477449995548,-6.864174668217352,-16.914495016653476,-13.213156569076874
-2.532856789413943,5.895297658025885,-12.382080125578813,-11.907654350185485,-14.704532037783594,-20.012548828893724,17.416480464305803,-15.805035218300345,-11.807579233053353,2.411740659716738,-8.431743074198748,-3.099711959584141,-10.217526152706876,-12.233742857577283,-4.790056901482036,-5.864309708842185,-9.135142259546466,-17.48197491706146
-0.07867570996483586,-1.3676658146869658,-6.07978002332277,-7.72534428933475,-7.617736180086496,-19.40456394461603,15.002968291766859,-14.43184820876617,-12.91867490276098,6.999372470581999,-9.209988708414702,-0.12217469668172765,-8.400766790083162,-10.375476900473739,-0.7599149248794428,-6.915021426204045,-1.5557478688271402,-15.602021458761277
-1.9191663500185143,-13.51202633151445,4.124915638005469,-9.701583673284828,-9.121673852633856,-12.747674930047284,14.639919809150616,-21.754703567541476,-15.78788600393134,5.529026766683629,-8.13412211095628,-2.61487936857342,-9.906358308269308,-9.205570966541494,0.8277045535432315,-10.699907819745032,1.4290211322298525,-14.995314611131768
-0.14404390883023765,9.306603793504978,-15.752937445328659,-9.242548859217695,-9.255192167044056,-10.296005547285056,13.88583918652591,-17.55847684823666,-13.969800759835856,-2.6829310594749103,-0.12596034231901676,0.9457657417940188,-7.89827143174449,-12.044438057199429,3.781431703602551,-7.06255759064116,2.4558576218300097,-16.44314382497807
-3.3471830679206978,0.9739638072078081,-9.853160234933723,-12.500731192423022,-9.385437140075457,-9.608169574098838,6.490578548915648,-15.515276553768338,-12.933251160189208,-9.921568006944248,-1.982653215494382,0.1103616945949133,-6.282826645888887,-21.821857124209753,3.511331574469935,-3.4249525233430296,-2.4792692324402683,-18.09003691899843
-4.20424825282282,4.75246150297008,-13.72321602333733,-18.108972253925927,-4.629460484959177,-14.297556915811239,2.415174758490825,-16.601702107485423,-10.334449461331712,-15.112675442175373,-0.03213456810074611,-5.804715555470685,-5.548321890483568,-26.916600729380818,2.068196087150716,-2.716818216998189,-4.684881418947459,-20.033673858170488
-3.4964976954758455,-0.9402352074480169,-7.929257943011997,-16.106228720641376,-5.436580200314159,-17.430517789581096,5.370569238828515,-12.516864779232606,-10.763306958408435,-14.34996830062836,-0.4268584211996096,-2.9320858863026595,-9.11278568409168,-27.426367125069717,4.43254992080906,2.093209358104037,-4.454010385724919,-16.121636577611834
-3.66537257387151,-4.971115915149992,3.720021202958458,-16.746605710887263,-3.7011447618815954,-25.159535848583406,7.055801364678846,-8.046010201942227,-6.993147892662051,-15.934377065035468,2.5949665781861784,-1.3305146174001758,-16.194962110869724,-21.691012102518506,3.280043063363949,4.755041702344821,-6.6695987274858535,-11.82277542735234
0.36733057146637726,-0.3087957660496803,-2.3109323956538717,-15.830859042964107,-2.4504861460361935,-26.351671012624514,5.810636887718226,-9.829878283663252,-8.399111848226463,-13.1275382662234,4.052781457121968,-0.6093879758340544,-15.271242249960048,-22.99202254826186,1.540388796524014,3.901477447138939,-8.694940402453264,-9.383232674374499
-0.6758739438602248,4.843502143687951,-12.545386518477343,-15.312178415879217,-1.4892320517507978,-31.553997801438932,0.17015714776892565,-5.6612623288384505,-11.46551624872604,-14.23037844854645,3.848915351400052,-1.8429573886165587,-18.646504205611553,-22.930863890122236,1.4596968138929318,1.583336247626209,-12.48324050477597,-11.635094374568657
2.6778129681974923,-12.756737771933807,-4.424436578043808,-14.897621772390135,-3.0634548518517066,-27.778071673322245,-2.0530710327797923,-5.305944449283942,-11.602442934601907,-12.01624151226305,-6.219893920093282,0.4375952128282874,-12.843981140523464,-23.9490075667599,-2.333226314625472,0.9256730147135792,-17.44860023113944,-11.547012187280629
1.2485607039773736,-8.479902231033545,-14.765081441877996,-8.825409892859785,-2.680844043800449,-21.859965675464487,-3.2028855742640534,-8.373299093267544,-9.49349129470835,-10.098478559935382,-14.239412941990969,3.009549934881508,-10.363863576655984,-19.210436567447836,-5.932088084163072,-0.6106061584893948,-17.536284675448115,-12.53701333612096
3.044299608149892,-29.396996491641197,-2.258125303201618,-3.833950602457012,-2.685132153372084,-19.85448730935384,-3.865284780176397,-8.515575907812824,-6.505864504562781,-10.23494169016487,-17.768207951410538,2.064241357029455,-4.760738961879602,-16.918422739988966,-7.481407896358567,-5.759910552449965,-15.480752890703595,-14.7027592637856
5.232949563237013,-3.8272143750562826,-23.3497676590915,-5.782728396519133,-5.810683910428686,-15.511565234815645,-2.8684272747788473,-8.467191757930562,-2.932530230828876,-9.202936327568368,-17.196918496692177,1.6056241877011335,-5.312089452641148,-10.139285105874313,-11.18048439095177,-6.026009228450686,-9.328889754728529,-15.798123050459811
7.6191881386444535,-18.002316104605182,-11.632768327014134,-2.4645422025570802,-7.955823504244977,-9.710139603091857,-2.360834428502244,-6.763278107208574,3.0820144813381845,-7.002471411241247,-19.556909293523404,-1.0030722720634793,-0.7872703579762614,-10.98259893114891,-10.095633168382793,-4.924573185506086,-6.600378298572242,-17.97157350327244
9.910033877426526,-14.011238084834574,-9.197633826500399,-4.524098526314592,-8.339239584428562,-13.680867531065218,-8.299678997512821,1.3813992797573036,7.240835266345803,-5.879682012315071,-16.547278687802564,-2.6368111264088263,-6.909171884017509,-10.854495515654769,-12.23480339558463,1.060083962038966,-1.7287617456823448,-19.562925007673563
6.050697380047962,-5.135409939580822,-11.161495073660529,-1.80500163862607,-11.355482351254917,-9.845369358651805,-11.798156696861046,7.470624471078736,7.883757020083221,-2.7095256239630974,-14.12515391560726,-3.1002867522895996,-5.904078026131229,-8.094802680933563,-12.129175416380207,0.5996721877850355,4.895297147563767,-18.911989419407643
3.658471605331764,-5.1445506862266885,-15.473554850417278,3.739587968032154,-6.652784596625844,-10.606188268346227,-12.368028294308015,9.258279351823731,9.698357995080583,-7.062464109500558,-13.364774037687052,-2.4911658111300157,-1.8736052666790695,-9.14893768293512,-11.927232614632725,2.581053756817338,4.873203534210518,-16.995335078650626
7.420916061764672,-13.257376791579222,-13.539944752238412,10.644802027151357,-5.559398806991386,-9.61557801445862,-12.939074805684683,15.240599627051417,12.09869869508205,-10.149302361942546,-16.902900793938407,6.2219010059405715,2.5454972781691403,-12.845011082920175,-8.60159745171634,6.027659256408568,6.115207756238238,-17.914575545102835
7.5722434874840925,0.3117433294337779,-20.69294011521627,10.51207621735459,-0.3603195584173604,-12.830664348208071,-11.167558567201567,17.604980761256776,11.666765351362102,-6.794179860215802,-17.805836236250613,10.636373664204056,8.427475840822606,-15.862660230650617,-12.015713390395195,12.697336067675126,3.4454255481716416,-15.517259237372688
8.507037728688994,0.3083855191620084,-18.865866561355283,8.51727556212592,-1.9931712446886243,-5.895759874600273,-15.842723526018755,18.89054099641386,15.043291596035864,-6.372237591126776,-17.147815965508563,6.943594209264949,10.791797947342545,-16.444043427419977,-10.74363584685982,11.554767678063286,0.9654605151955664,-18.69022417124072
10.615914092989597,-1.060213524991036,-15.871348273134357,6.7112208382379634,0.5774117849113427,0.8374176780789817,-18.663708290107397,11.187022665535956,15.19692758576641,-6.539685980057493,-14.049919652936012,5.788251180373357,11.49397407535561,-10.585188101127782,-9.86357762746017,2.892935491668714,0.9214217446044728,-18.741912799373573
11.652727732215247,5.190476574409271,-17.76416754830286,3.4337421090110283,0.027138512133646042,6.880585400056468,-12.306228006885933,3.185986177683331,16.229305977264826,-3.292552154926458,-10.855931286570677,0.4319563316092916,11.901227104701032,-6.19636316994184,-8.39897096195445,0.48158911019787126,4.582843455080724,-19.77392924440161
11.129171971481757,9.197041409486754,-11.946475773849198,-6.686321299851503,4.168666081025961,8.815731173439008,-13.2744855118768,-1.108577362591209,11.011419418778557,-0.5371385108755362,-7.565848005909957,-1.215016594680797,10.548706517243666,-4.84008168277726,-4.103696777896543,-3.0035936765602433,3.5511461129027815,-15.145523979262919
10.90072477504792,17.5025659344757,-19.024053461466675,-13.004257315237252,6.263646759373328,9.377283436709476,-11.998066077218994,-11.3647582760536,11.750493200027579,-5.304793475690188,-4.960927811904917,-5.109791979568235,12.416973675599408,-7.395249796172518,-4.497409345940458,-8.246208690666052,2.709205353663883,-17.356862367502835
12.334574309688469,5.69263045682663,-2.4729006443392727,-16.88725255937773,6.409772993114377,5.342551340101501,-10.332509587579304,-13.42215612260118,11.415177886910222,2.9126188607370977,-1.3809841702969194,-14.279761014507763,8.130903141568044,-6.049232133503079,-2.060470295834624,-12.023542089187309,7.037557053267211,-17.228089346979942
12.89159806969382,12.146741130888948,1.4759687098134933,-18.823570675611393,13.005643473218823,5.012460164607006,-1.4418160369441373,-17.534803357527704,12.056293954150368,12.88447044852683,0.8302031095992781,-18.08023027744717,7.260972033923711,-2.364533762702301,7.89468492570794,-13.749638953570265,13.899435847527354,-8.509080010374173
15.208532742182191,31.103104468660124,-16.35726291020013,-22.71949292105244,14.722991681919856,5.554955545545646,0.3182860211198415,-13.839235857698867,8.986277877796098,14.845000891414191,3.4304802757627577,-20.02687766533905,6.193863495430401,-0.9310471405463829,11.01236217887038,-9.518181142865375,16.45879602876747,-4.774228718230475
16.941569267756734,20.764219736931388,-3.6280343225975766,-26.621832883425526,15.175183609957214,9.411503753129736,4.713530928438395,-17.1793956775342,12.752173663964923,11.723957530017527,3.6854384701738603,-20.70564786544733,11.86329752127201,-2.725325837585025,12.956704673376183,-9.973853743072041,11.785903970879733,-2.312507918201309
13.50076960243906,22.24400641564347,-8.090965616396797,-27.600823522280265,15.143509021731392,6.035094225071866,-1.928203495663363,-14.762082370061158,15.443712500902716,4.0096456895494175,1.0091400272964695,-20.409511338299545,12.159735673472152,-4.329322672161624,9.333108994012285,-12.675204614246654,3.689412589363368,0.6339569734287025
12.4057545593041,12.299932042205217,-2.6948455982094117,-25.16813811304668,12.577181428686293,4.312609232657984,0.41288205649889376,-15.08348083535649,16.767929378556488,0.6865955470041207,-1.5710154543632253,-19.040806580901005,12.161402650806686,-3.3015654737552005,5.708061819360015,-12.348707113929946,-1.1899482655524345,-1.5012882113496673
10.433792660435865,14.076889507393311,-5.896967680352304,-24.890226676810922,10.503615017089006,2.8768708199639157,2.5569237613655327,-13.358321353664904,17.115463544025268,-0.9795901038980599,-2.8831245901072027,-19.529261039311372,11.184717336784416,-3.4506751067878874,6.476157538452668,-11.631111523703298,-5.195958364928184,0.16864958260584118
4.166836119382676,-4.359194966316505,17.850107282340293,-19.833345404218658,13.317430502349731,-0.5182162000815005,1.7694698448272774,-8.31701093486437,12.18938280241872,-0.4029438964022507,-0.7787057749045267,-13.183330099881978,12.550066796630897,-8.292296938361691,8.219371915828349,-6.225468561876566,-12.234918848747341,5.448495183778505
0.24558360575566418,9.238575599039653,5.94779181722577,-20.642140674039503,16.428734656763773,0.5727942315991115,-2.633117693826322,-8.358070995866365,10.09528805304376,-3.7358811496244257,-1.4101845266054163,-10.159412028790712,15.1832406110457,-9.134856599242676,3.7110294334028575,-3.749073246548302,-17.130958549137254,4.1818854563977155
-4.259725470775511,19.420446280456744,-7.228363407370464,-19.40628526273973,18.07970685157964,2.5366032578260125,-10.357898193063512,-8.305595258893266,3.9971460656456,-8.048645990694016,-0.2852919293397367,-7.137136005999693,17.81471369056486,-9.39633733750841,-2.165985069256356,-4.299574626366263,-22.227849813685467,3.9861674238473945
-9.153804689511475,8.705685073787746,-2.6350707795174397,-16.711672428649212,12.899188196115407,-5.857389446828945,-10.076605064565173,-5.7180924082234075,-2.4916980656711667,-10.899769913442938,-2.4822168729133756,-3.9211779718222664,11.362342536025347,-11.22516968012172,-5.895994535284062,-2.994077044139113,-23.912240368517466,-0.6074476905933821
-9.065508022837687,6.000985265667519,-8.886017766581125,-15.585636093469446,7.137288990980062,-7.909668320892052,-9.60188746669426,-3.7205606096522335,-5.757899097625199,-12.484542087513752,-6.145448000281714,-3.1482874317599014,7.8380563140861605,-12.863472511665526,-7.478999974194084,-1.5904112345048245,-23.06303151901073,-3.2511608029785464
-5.557389561304571,3.1030976086458524,-12.406746024620006,-15.63748650816426,5.090962843543158,-10.456231024854956,-15.08621162704447,-4.4614189782197435,-1.7974806566809431,-10.45914915865685,-11.372628091535486,-6.869266578529979,-1.742629145171468,-8.842368619265635,-11.602573344429867,-2.7253276777311863,-21.242726294671773,-6.581683692429399
-5.074890919993804,-13.074115437043114,2.5256751064711302,-15.402296094313732,3.4398577373238846,-7.930540126672163,-19.40058974017643,-6.9640373535085764,-0.9621539795459908,-6.679059348080446,-14.843378388428125,-8.541035628785652,-4.781836647862011,-8.732270866230875,-11.821303652825247,-5.519898316139635,-20.11148302344777,-7.86455127494186
-3.809391467854713,2.7825359036314086,-9.206593826299505,-16.735497831948237,5.504346091632803,-9.903005879034405,-16.97855644560675,-2.1461916120400133,3.4864744315061564,-0.4606384149022862,-17.143629138457996,-12.85115410057799,-1.6701676442684392,-10.579976943610053,-10.869606907161213,-0.40365635003548084,-20.157564729951474,-10.90836597523927
-7.327414047883433,4.67625308492991,-6.391948040924669,-14.851795850429838,4.839024418957953,-1.3342860428149592,-21.785192993422115,-5.43774893419047,6.860842707645543,0.6764988945884216,-16.02723556126606,-15.405010895237332,3.5884408259798617,-7.94002673173285,-13.142080131326416,-6.224537514419342,-17.962922436308254,-12.490371923668082
-8.207002438815813,11.064344758814302,-16.27685668296006,-13.364457498319254,4.666603614395033,-2.341822913813804,-19.171861339599616,-4.9244078520354755,1.2506838047445537,0.9316677999779763,-12.666073256483447,-16.300250209481582,-2.287432792891175,1.5314164939759785,-12.193310635839948,-8.822161556330208,-14.699418583440483,-8.118261702373445
-8.889632502350395,12.864635561254616,-13.665580577585914,-8.660075013013213,-0.38408844749766224,3.383280135831292,-16.267598045495156,-3.438184311772927,0.5234069990314683,1.5744524300481775,-5.985889317926242,-14.462622642810194,-8.360089704176662,6.213134233627269,-6.460772191061223,-8.098863007357659,-8.218550113196333,-2.772527840666939
-8.789390441001647,20.23352363695581,-14.671602808939388,-5.328488557660524,-1.816826677015312,6.270620385034778,-11.412241606382512,-2.3462268742193046,-0.6921529504290005,6.608854714931059,1.083602252184189,-15.556262187294044,-9.355979240452125,11.866987271048078,-3.5617656066601504,-8.253917196554294,-1.0593831967830027,1.9843588011466764
-7.8086514009752985,2.9947591549618897,3.3617181451085365,-2.1000717387737495,5.153618010098233,7.101517291127571,-12.613745333650074,-4.968837684140313,-4.544455548495977,13.495809037346937,5.515030101087238,-18.01862942957897,-7.325880445871516,15.856272200798031,-2.519710041888325,-11.338129429641231,6.387488535078326,7.6173179875375325
-6.045106211450694,12.028015304252545,-4.6834461298085035,0.9275955239371676,2.3629038900462085,10.465943836954633,-11.766533957577836,-2.516757955562973,-8.201415220054516,12.078947056330648,8.675621522935224,-10.326094872243033,-10.863640156281178,15.44662926493666,2.4272051118636497,-8.464638406699894,8.0673247395212,13.149826575702072
-6.916809030520325,7.29360791492366,-1.3064742239682658,3.6569352587418926,1.2369826307195577,6.500529062459837,-11.605039908105278,-1.7283084971477418,-13.225544342364982,8.413086267887941,9.002871899387973,-1.4631539056961298,-13.816785651921625,13.567848948489782,0.7319483429849747,-6.0788483516699126,7.8864767418916095,13.69905232969877
-11.400370640178199,6.662891437844092,5.6800654601770155,3.255954616728612,4.021976462033793,3.994531910860644,-10.37143811819634,-1.0409011850981624,-17.761334014056768,8.943676071394421,11.282029964747196,1.7341688525245829,-14.525099469803754,11.782514619659828,2.9415604743592922,-3.5948065546609587,8.774720599105233,12.390098135141926
-12.171494002822957,18.04612955819541,-6.7710013840610745,2.263838202134817,2.3193120798499702,-1.0559511553308827,-9.04231880185857,-0.6497862648524038,-19.85561720186709,6.053452200231559,14.341222502022369,0.8284148730973744,-11.816652065421488,7.7469012195195255,-1.1980158746370089,-3.160977421700811,7.216423612218161,12.5433827081654
-9.425528130425663,11.560039267939153,-4.9677005402744925,7.712028310379061,4.625203371710577,-6.600042365467752,-9.277874921413032,2.9607810288899294,-16.773964544480815,6.187865855060901,10.660823338022318,4.804114259053783,-7.546903066463248,1.5587283071937854,-1.823343188155404,-0.480414938905688,8.48515175014149,10.447967747920238
-3.650795283040961,-1.5647550877031833,-3.5586377135977205,14.131778043925507,4.982516839479774,-2.3836124150248867,-10.589827735930834,3.150141304457236,-14.864116094854099,4.854702203349966,6.197974549593795,9.169029301532248,-7.47762094689701,2.3978863277666758,-2.1571207191146295,2.3960733311735742,8.967618648326631,12.549320126530628
-6.273284614886718,10.312837296956761,-13.579080832653375,11.366770424541546,2.121688674517072,-2.371650249104892,-13.564132240445234,4.019987335016639,-14.516689330909657,4.983735502069877,4.273059301221098,7.087136801615314,-9.948585186144527,5.381552139448541,-4.250154447015656,-0.9769189863598955,8.273245351580872,11.523165483241055
-10.261672365368316,1.7819490481532387,-4.559756932543985,10.354761692819878,2.585772450907724,-3.4390390416905188,-15.27106339627773,3.226601726627182,-16.415274520191268,3.840591896990344,5.862675028104405,4.027289038195919,-6.756505947689123,1.1346474882886834,-5.8563094119272305,-1.4195603891632698,2.788749432295301,8.053164206112864
-11.02607822320467,-1.2781380963131763,-6.676848398393739,11.291157928026934,0.9059178868653905,-5.390392982818705,-14.831707338284053,0.7700534638538947,-16.94652093258661,1.2299995733872997,3.837826732283631,4.1887878370697855,-6.1045930309239065,-6.338794604588964,-6.975578322835279,0.8728369879045772,-2.602926223802129,8.584783342039419
-10.422032648170129,1.5231862564077856,-8.309023619619419,6.168116199278792,3.234543968591322,-3.635726827597061,-16.543009081462543,0.7520371660624274,-14.35257447172738,-0.7971844843738705,4.546287518914019,-0.43628237487678945,-4.574784472261884,-9.22608843432318,-3.7016439488391426,1.3103620809557075,-3.1164945794732777,8.430507488237797
-8.351911197138527,2.4709389206548833,-8.381985765927901,-0.13138365458933876,5.665320650239393,-9.796239125745569,-16.693977627517135,3.660911550813198,-14.199911128856366,-2.826861519105797,6.327895732400451,-3.695464781400018,-8.51479165809392,-11.824107312825085,-1.9916204997831883,5.166534918426821,-7.638750354274235,12.180306418871957
-8.429083432277144,11.721502031292387,-9.727746521055487,-6.044723976320592,3.9989428791435415,-8.344275661204094,-17.140111872826033,2.9536784638000135,-11.60562828706041,-5.737905256509983,8.108436056361542,-3.2449544111126247,-14.506551321017156,-11.496024300587969,-0.868922344531037,8.339731774981683,-8.45467061069295,9.970804170906856
-6.356641826794576,5.641678532852484,0.44692188014460044,-8.544420110588389,1.3604343386950255,-4.553279922862911,-14.07276052464562,4.782846322133048,-7.253314116773604,-7.284141019543313,9.497297222678267,-3.7723036107076506,-17.276502516672934,-10.097267863610238,4.84231924214051,10.048691351391607,-13.767442250444496,11.372514813976032
-3.208854408036213,8.255247478910848,-4.323163372849319,-8.997584899425469,1.6560788719042243,-1.7435397162658113,-11.0076015753001,3.581995015435659,-5.732866009019778,-9.321018518590845,9.7132368402838,-2.933707514033519,-19.656676145629916,-6.944164646301121,7.036520571270172,12.051252816361535,-15.666723280476564,12.674499447804116
-1.9154860983497461,-5.047567719861625,7.603171184371654,-8.966645944258367,0.1006197015337591,1.3545717546526443,-12.143916011865826,2.280928051132614,-8.411475563269864,-9.21173074028875,9.830509390378603,-0.5338316648780381,-20.768108427203746,-4.478088464715192,8.643422811032357,8.194977576263744,-11.808661157455237,9.384556886302438
0.6484782490231988,-14.051641956534677,21.38201553392934,-11.283580836998919,5.873855156447541,1.2254527677411016,-16.60278119021385,1.2703478560946326,-6.499929057495915,-5.881993858714848,6.333455351217953,2.743738554452033,-23.44282918425883,-1.136445343601224,8.39348450261969,7.952664615231004,-9.12688694931852,9.022387564520567
0.3813812030936006,6.438693622283176,-0.38947755849751964,-11.358378379156765,11.456108282592977,-0.7636107105826202,-15.20436545555925,1.9175343596849732,-7.713170527632428,-11.441318336263244,8.304263438503085,5.922444313155607,-18.30565023898583,-2.680971441224962,9.607078151636518,8.785210004628794,-11.918271077421295,5.630923313545981
-0.17770813354025583,-2.6595228439783867,7.133499286995807,-8.31202105124898,11.769143925509482,-3.2453320993177837,-10.194791698580078,1.6834579254220987,-11.758209015865013,-8.018287808459753,8.71159498242615,7.04914910016762,-17.661401283963322,0.65417807338887,8.963850092732011,8.0558511707918,-8.854443919816067,7.315810032963842
-0.5405329855612577,-8.435662953506672,9.673147833350477,-9.078110194439615,10.426264115817052,-5.34071297064053,-8.605411077093194,0.3728746588995122,-13.752139500332962,-7.722411557277174,5.89528673787999,7.198106019614196,-17.701384495787448,-1.775619420991248,7.831018328189343,8.499000315485025,-8.626871006103176,6.459796903664538
3.882788735306404,1.4151176028406756,0.8817840841069664,-6.136901356889975,5.571935767611206,-2.850391251807036,-6.43224916757474,4.333609173153482,-6.175297724706717,-5.280120573738135,2.1991425038769954,9.299064859973374,-14.909874930031137,0.08845452994697567,6.403908104005696,9.040416817371407,-6.840879156757599,6.676272622940033
8.111680822442938,2.6736674233993396,2.634811442186507,0.41404633484851416,5.507029121388707,5.397605597957348,-0.9408812791051471,4.776536217605091,-1.234882718982738,-1.1796520025668933,3.7756176261786103,12.473123118290111,-9.67745696195549,8.492599264613947,5.073160258104068,10.851987096990747,-2.9104455755859657,11.285652026382598
3.3569154544518955,-7.394462937850101,15.225273178681785,5.301313577688884,7.497088156618831,11.883711591003461,-1.3111261867858506,5.119747857201325,-0.10276868680501927,-2.5499688366785,5.839500220486387,13.302276576011764,-7.179944006890203,15.038320470675156,5.20599312938203,10.125051824775358,-0.44882886044730697,13.940232994422113
3.9741494861444266,-9.55073224703259,13.652858248382763,8.232025763897123,9.491259432773187,12.213408699683342,3.9806390151545443,-0.30083393688952853,-3.2672254927160287,-2.8479500026185596,5.168101895364291,17.255374851404575,-6.245396206549661,24.60857644900181,1.7242142965245848,5.297078671646766,0.9346811169586395,16.690878339759742
4.299203320834117,2.6502359432512157,3.9724172922210226,9.596912312402406,16.665360704547627,8.24227447340676,5.656939294290403,0.136132491998171,-3.40390366535907,-4.807959328258905,12.21081751557383,16.51981434679584,-3.6510610596454676,29.879107869287807,-1.4658564895273198,5.938516644027341,-0.02938576917509117,21.88142333999009
4.234388841416111,-1.2608084981173509,11.18440280442135,9.884360126262862,18.667627497263318,1.6305711239021772,9.674907731235436,3.793958363646494,-5.200355679503993,-0.32435110987239124,15.639365519012255,13.927684544390406,-5.354013604123693,27.236649347967372,4.913276300663491,6.971152671437164,1.3466237795577403,27.265788697892514
4.170306938789747,4.7907150535206915,7.456430077040389,11.828883775575953,18.525404218187806,-6.5473854989352045,16.229871330493896,7.352350283189253,-4.261964120462471,3.278597754225988,13.598264750220132,15.631437460986817,-5.9830310556350215,23.712628938155024,3.771518421828932,14.05912402848133,2.0354028138170666,28.840054976580152
4.204585607301711,3.128718876999282,8.902097626220785,13.184452629040443,16.629274807172855,-3.596008451894635,14.579490735245429,9.34651142814875,-1.760602740091084,5.707967958866806,8.528974224436537,16.943515296394022,-3.6825693774304575,20.186036771434345,6.925466764980574,13.530334359580147,-0.11143478364651571,26.89724246398646
3.8489067417991505,3.909570448264155,6.4393071244139914,16.68558025224472,17.764420063763353,2.965136954500247,14.684867976687816,9.581195051907764,-1.9931929893529299,6.9638136856689155,9.025390184374873,16.887353686075567,0.27786761031792473,23.688300266684294,8.320351823966671,12.709100345780286,0.5703451996967761,25.148391492982604
0.8571132743340635,8.305124429731991,0.1657878815908278,19.695603859697613,16.65727214762763,11.280634230767731,16.155385057071538,4.736106123156345,-4.959715804584238,6.850873866126792,6.395988463677406,20.73648292017928,5.117064544833564,29.531917641332573,3.170954756779163,11.00946061556577,1.7370433517133819,23.593547398456153
0.2097212861268292,1.3737076626798173,4.144326065959259,20.554437333675363,14.674988187110374,15.49109937261694,11.764382545059132,5.748979018005059,-0.6990627169235939,3.7090215246319813,6.9885364719165395,16.283697068861436,8.686597386744385,33.71299087084408,-3.737484707311569,9.017345572400338,0.6543303146807897,19.69365339198191
5.031750194485114,-11.122912776942854,18.47265097940903,20.824699160830626,19.044188406659433,17.45210961635132,9.324493320407047,4.807261302122558,2.585534949623195,5.350930640131549,7.873315900943105,17.396406067129504,14.795163859324447,31.055728593479305,-4.885310081057972,9.662470273678323,2.5958123856636526,17.062089432637215
7.608210680357767,3.335250334260345,1.3533213341012558,19.627563421612944,19.90138724639533,14.136354901723468,7.175549755719892,3.8641738017906384,3.2339142947762287,-0.039930447891881826,8.65970928428169,20.070652639212074,14.067666311169909,26.83371716039767,-7.889814567748115,12.065896801691744,-2.497168428007713,13.941058894031364
2.1772686674265787,4.31785170964859,0.8340166575202934,17.45141157748858,15.976979074547433,15.79797748145318,3.950357689564525,3.6033859199240723,3.8828527801134545,-3.576652393684961,6.027366553569397,18.44698167213231,17.344158775534726,22.414232815415005,-8.844678006740772,8.414986581160361,-3.9798283486206634,8.670422019848246
0.5554837660466061,4.91098705642225,-0.5659273091288171,18.202644940023873,9.321720279707327,19.50732429063064,0.3325357102691484,8.907849036612529,5.606603782361738,-6.626388500231917,7.49594640400046,16.627026767280135,17.690985990861034,21.508337050504007,-8.726467221283745,7.596573497016794,-0.2895526215150781,5.254187123182666
-1.3587955717551383,5.993533986287998,-1.0886002099219334,18.560990926145127,5.404387074441292,22.23708407585855,2.7675092439827997,8.742301994323594,4.987164351506797,-4.306196666741395,5.252841944619259,16.173319501418213,13.155036790889852,27.241144394141998,-8.707064497856297,7.462165701307597,2.7142860159747944,4.278340767926173
-4.542172701948412,1.4130122675559242,3.5630093229904345,20.87032469094319,6.56870697262365,18.81147480660602,1.6848344674417666,9.552218180430119,4.368337888534972,-5.600533888775676,5.059871788478641,17.476497791350308,13.111497154904086,21.546039239918525,-5.3684383271384215,7.328136359292872,0.24655067499561412,2.715532304879071
-10.850170110815805,5.622724310116324,5.966983570193371,16.536853242590453,-2.1270134617275716,17.62913979591182,-2.6225005909303407,13.876760393419161,4.140772638641829,-6.700693232844493,5.452181413537186,14.38413019279718,7.98995070930714,12.431022076803192,-4.179411552744863,10.514824903181777,-0.8566238015586007,-3.926455827396051
-12.860824417627452,8.466221507807047,-1.396253237166689,13.080309403406122,-5.838857797036166,7.068885055205872,-6.931775636257859,16.540128936066605,3.327908097282534,-5.653464890886271,0.2773444180115252,9.337665632058815,7.55621280974966,-3.8148359366698763,-5.530604542570515,12.627608227342133,-4.7944266029321305,-12.229565030641503
-13.015603420198111,-3.142677423132146,5.594830589523522,7.766361918918992,-12.379506117547823,2.853683228180133,-9.582794189008895,13.538415929055315,2.7110226608043932,-5.095552939036973,-1.8707471791812251,1.4581891225737849,5.462570820994485,-13.226413178784643,-7.957140625951566,10.15078183429228,-7.465138454716064,-16.529609456321875
-14.439578502151202,1.6558288511911892,-2.35701750222196,6.356901514575631,-18.13568364396413,3.323428576840754,-10.184910400608635,14.930426973110034,5.415180034341997,-4.831587123224334,-4.312445982795113,-5.055012566881098,3.9551923243780873,-19.5146394810355,-5.7948603441471445,11.287569006053415,-11.114792691806924,-20.73286254484933
-15.179617947590323,12.607632650809535,-11.286671605662383,0.06281417577892334,-17.345645977149324,4.278913454339994,-1.4137789190739936,8.313686303966085,5.0926426428910725,-1.638807416262511,-6.754768525428219,-10.494909427816804,8.01466066343781,-19.066114638938114,-5.3915063284806575,10.27613516593366,-13.790139376554963,-19.272797683234657
-17.481872240052013,7.935012574110242,-4.592247289659555,-1.6430182107145281,-19.09162581532328,5.72021234754353,-5.535349739872645,8.43456875286401,3.1106338644709677,-0.8883351328270628,-5.584368474553413,-12.420055423358633,7.093977493264634,-16.568346822822978,-7.62598783194027,6.6281627065793565,-16.46766038372664,-15.176770118840931
-18.90491969878647,7.1694709440764255,-9.031897241730265,-7.256739492466968,-21.908820454346397,3.9364048996977217,-6.924369810447229,5.039066485072156,-1.6050669746821828,-1.5058809873594443,-7.637277979564354,-17.275859547253717,2.9510186766949373,-15.927582736916381,-8.787300408278556,1.906145588344625,-15.24095024656167,-15.476103164801899
-14.565894494289173,2.1077115627062843,-10.152208346684434,-5.547631601635426,-24.430085403142108,3.9081088829116433,-1.1862263618029196,2.424173731006906,-1.4371422538374512,-3.1007601640623426,-5.1985261848757975,-18.421594277079752,-1.3867903934552033,-11.381953262500755,-5.555070678381427,-0.9602148168214413,-14.016222434875564,-13.725352711013425
-6.222656477154161,-1.9767939161828476,-12.445369652683969,-0.9102165295534359,-14.448267432712505,3.584584011630492,-0.7234381392387936,3.324359639878559,1.8565819874791636,-1.8642672713347375,-9.010455386856163,-12.536895904815506,2.8697812110502956,-9.865095949146871,-3.105148782598718,1.8377016001200284,-11.719145460114344,-6.604123047189174
-4.129288240088264,-13.873288670724886,1.3741052242747829,1.8703510897613902,-10.420744084196887,5.212029775525103,5.499333491167249,0.9036335660558317,0.7564724056988417,2.301308587436729,-9.209624969727626,-8.606276620138038,5.17373069798268,-6.005773541801622,-0.6562628624710087,2.6825584547076007,-9.32620023179361,-2.120317037121838
-4.770130368421965,-7.897833826301417,2.2042754391619095,1.6222512793440758,-7.562351065489912,9.278805528587867,6.544435333839946,0.5332210985975765,0.04777024998636148,3.8295289700976465,-4.8194489204948905,-7.899287775760002,8.845453162173659,-4.491496477864078,3.647093908885113,0.793060302206559,-7.716209843826761,0.5073583448359136
-0.5278977179565851,-3.093735673199271,1.764134816186016,8.697275624231203,-1.9668440222557075,12.952906625663097,6.51350583235039,0.3576737527289229,7.250132799815541,3.9899967923863873,-2.675960682049448,-1.7243918608450395,13.78732154195508,1.4161799360495508,4.62907087116339,-1.9753301608160623,-1.7132174979675607,2.353168614991485
-2.242617392367738,8.351577888705588,-5.024454879509205,9.61872529513323,-5.060244037668525,12.035119205391819,9.117552084284487,2.037220364564805,5.566439317971262,4.345287697803515,-2.7791521285078487,3.5706560247405275,14.432874038527782,0.2913602533150357,3.461570251748487,-0.05615692715391152,-3.524344211068426,0.29209572648316495
-0.929794614892125,6.320565164333766,0.9794868700189205,11.320367286125723,-4.537741537710344,12.384975768566498,10.25496154876355,3.3257788202367515,13.356354767185111,3.43058685269951,-4.933699892035466,5.837382977782152,17.618180525643492,-0.8345385701259822,4.5391994575864345,0.10513318661693294,-2.8954309138228487,-1.9648373026072026
-4.304407546913758,8.782203029234232,-3.271204005395919,11.263165888424467,-9.969860898028651,11.8540732369419,12.66016302695797,1.5866346808312972,15.48293846572257,0.5623407723037126,-8.651307621011677,5.075785748378814,13.089204994598083,-2.2544305822216844,4.150973196154896,1.1452624380353154,-3.14674463839395,-4.124629111330977
-9.241424575919787,5.775354628408281,0.2902161277115185,11.595654968778256,-16.08315011486704,7.024457009911475,12.817489445104227,5.316054499107321,13.020433793066525,0.4281710686406923,-9.635027334255495,4.606223621570272,9.24453841507572,-6.4097006173791655,5.324289954529243,0.9157230868940065,-3.5945853705545243,-3.9411242957873878
-10.076712235066815,6.772773377707301,0.726141139728494,13.001500301289143,-20.240916254606674,7.857281974969794,14.242630477297322,6.603803081224349,6.847767824025189,5.274255201419386,-6.908274451601942,5.209954009858507,5.791231469428019,-7.538483851975206,5.813029941199681,4.397021720095884,-2.578676071809574,-1.3166385028733032
-11.59551465052168,-15.862728541047794,23.42764324368861,14.406526310050783,-18.732231295503247,8.297832717835679,16.154334655895124,5.64523624323046,5.656486000262559,3.577028584382634,-2.7171700557577885,3.859581833324789,4.584803683994676,-5.054776214295542,6.593778458065904,5.24136639355638,-0.19657948178151408,-0.9387174225508241
-6.571173320052599,-4.610789489691385,9.800137097435437,15.127186317905984,-19.858069276516698,5.221125103282533,16.111168324661392,8.202199550088748,3.6847873612387625,4.614024557422024,-1.651621234674232,7.09816992165237,1.8166241960123637,-6.185193380280614,4.248522150649379,9.796470734998119,-0.5498262205174616,-2.7096782633737204
-4.085871765822327,-4.686990364310181,8.379577210031343,14.479931554444116,-15.903534851530873,3.998397458673476,16.261610980184876,8.415266035129042,0.7373612571415551,0.18204021578971039,4.100997674478974,9.06624748697336,-1.243736851627614,-5.460845357659425,9.12898865619072,10.347333175416031,0.3656449091605172,0.01122956039076417
-5.506831474706335,-8.474074518430728,13.990159890081161,15.492205252882412,-12.337527569010154,1.9929524876253346,12.504046092339989,7.065733591360221,-1.6232645308075844,0.04689604491286663,3.505368235182478,13.572459400578506,-9.283832965706514,-1.5144678044316082,12.34833042030496,7.675174952011709,3.917135426575342,1.364565091703124
-4.77928513480634,-8.843073844635102,18.819321298041732,20.996133019325946,-13.359396313487537,5.845577272949921,17.143356795788158,10.013101116208233,-0.2720392841795207,2.255482883216846,7.889794244350339,16.319857494577395,-3.5533615402754704,-3.8188061142293486,15.371419944183092,11.643386581643671,5.221850708255495,5.9402647531763515
-2.782164453236984,-13.313681062014727,28.531264531578564,22.2025672147403,-11.156587875831065,6.962450501148108,15.140258290417245,13.546407479394631,3.6191462310849487,3.194509121862853,11.980763411610228,15.843567466546986,-2.5096205027140446,0.8099894345570609,15.854477451584456,10.337682011564668,8.186191889836966,8.464832388045927
-1.663951246514542,1.9425459202241813,16.17250624574163,25.654623215273745,-4.5572753083642485,8.956967441725077,14.307376258672228,12.587481685242956,-0.20376951529380394,9.993033668152732,14.899361484949083,17.417098496953884,-3.9064684321087757,6.3171931417713,14.871743648823573,14.012081718653233,12.712591829144337,12.649283097377616
4.141834632897968,1.866432143663458,16.11862263631876,22.953779955528688,-1.178828199127885,7.141614519493082,13.472823569562106,14.07005326459172,0.2711157535820288,17.67055471941142,13.12991495826837,14.009083937182929,-0.6148784834172751,6.355105454711973,12.618539151417211,15.146897031670584,15.578434690008365,12.438857125017828
5.553012784929358,-3.1903479032472095,22.021910968967426,23.572880606360634,3.763916945045776,0.2468981341331027,12.34363202523523,21.31451384808568,3.5789352181193124,17.535575382573306,12.531893108400789,14.311052747951639,4.337769608732425,8.052794310285607,12.024600865196202,13.253796168149238,19.90885666025034,14.767273303422652
3.1555195365761843,-5.122247445918694,26.46043205419645,27.121334371712415,-0.8620879361268776,2.5309044417871007,18.34179416640397,24.359800890962326,6.106350805763103,16.717151671813376,13.202958276305523,15.588577762718149,8.510040922487061,9.164183926000167,12.894617577071417,13.801569137331846,21.89529322000276,17.779052998593727
4.371333458465087,-1.19489508138075,17.617647065561385,28.325661237236346,1.5449073908887567,-2.1198385046636137,21.603881795607236,23.303597568361738,6.388493744939858,11.894960384129316,14.850141580320342,15.986150970525305,13.757439451353587,6.466620436776929,10.638679335244854,13.469809026683059,20.854226306658816,18.251508359407957
0.899537374168534,-4.885103907441755,17.759567141828285,31.09220655729576,-0.8317491211466774,-8.52941621595474,19.590796494340992,26.153862498692114,0.12841980652020135,10.78400190628157,15.81326552329866,18.140519929782066,6.798517794793233,2.4015982108815797,9.358414632570929,17.824963017550658,21.082681312226843,16.379971586474134
-0.2285202934259658,-5.3529093394580505,16.339201383956116,29.659197220981646,-3.69518229153357,-6.346054883104493,17.869031550088494,25.293314381490795,-4.2753100246373865,9.770977702688125,12.186024342876802,22.735276951156788,1.4030208780611861,3.414578255635536,10.909323518340152,17.394186104769503,20.236955945971893,15.387163977223711
-4.676996959141133,-2.305382315071867,9.84091482819478,31.839283824173933,-0.6977042862207248,-7.483946350765001,12.1416477808171,25.80017665429103,-9.06882945269618,9.930159680766252,7.386442559677464,26.450046590437623,3.235099483922979,2.5719104620715014,8.064735798302994,15.888428053690554,19.29370967231428,10.780844519977991
0.24960547173555447,-8.535730513849352,13.88998822356842,28.550325771714423,0.34800052436743467,-4.618708553673919,6.119639994485106,25.818971746776974,-8.587996254242018,11.94518768877542,7.371645728057444,23.42535179060647,9.853310235890081,-1.0052761171268,5.3169096962229005,13.502959896835547,18.253023092976242,9.787700194434619
1.5627997838181198,-7.1492081534647225,18.037084351178674,28.972177759500916,3.4458344472065665,-10.641112529638537,3.904633275798523,28.084134444811113,-5.078946191353616,10.249605094859403,7.649381017739815,28.60281381981445,9.92935366150172,-6.633329323096005,4.423686327326614,17.07377897231202,12.62271925461113,8.013146094441105
1.7040220328241915,-3.6146914618467827,15.64151651335791,25.194587882899633,4.1034765225836525,-7.093795624603084,3.348156676982378,31.521446271816373,0.28641906923917837,6.0153382151715995,4.5086573519367175,28.115020330913286,16.549363565312063,-11.480127458848587,3.7248855330475434,23.085162207135575,7.969366886201414,6.726745451144987
6.4350717510129005,-13.752776619550687,23.793427531834414,27.27632639166466,10.62176987936766,-8.723027724395696,0.7392147664042703,34.6660564328582,7.605747423132755,7.055038565628503,1.1721830599261294,27.91908000629847,16.23656666383872,-9.686159637378836,5.85726736906613,24.896338958576305,7.613405101830292,8.955900048183931
8.236296106505712,4.234007395990994,3.6250738077673255,27.404795110188207,11.965325235020849,-11.817766722957483,3.3044783893949266,31.365541294047603,9.847670662224312,6.044406804860025,0.6673508720950307,26.940744081296167,14.655104960465046,-8.478052915186172,8.086415849749642,20.55411030034588,7.355625396303196,4.348900522773196
3.7873253717654842,-8.639655677096517,17.44212922217409,23.138569647698354,6.766869723808895,-8.467688586168483,2.254748413679744,26.209827376713026,13.164614409699169,6.889782567340304,-2.9629586664379275,18.63693025396186,11.804969743113464,-9.222970717786797,5.431786651884499,18.749971250691164,4.1687104828125925,2.6715312576088426
1.8773498595336457,3.0957898973207083,10.165662725598581,21.313709066761227,3.7178778660985357,-3.9462651021032524,2.6682242361727218,22.12865841886651,11.01349697055197,4.903623212348327,0.04703108589490945,20.48836028043964,9.0533588704048,-7.428612854202148,7.3661806989606,15.577568703741038,2.7403028492694803,4.900379325490237
0.8461819366123917,5.064779498431518,6.893746662423155,21.14896690778761,0.5721574491283739,-2.2574183479780343,2.494089677950435,21.56348832250335,3.1989886479445033,9.656415015028436,3.6425428289318074,17.455728513369273,10.892516093353942,-9.149715876765173,5.00274349644593,15.626773388439792,6.097861673391178,3.808780957049094
-1.9429431958825307,6.935389894005436,7.528755187053772,15.320026404298147,0.0640611817774146,-0.37371403109332935,2.318287023511706,12.40476664507537,1.342345182458223,12.066014739599877,2.5500611710166305,11.882807196418078,14.39269512225301,-9.991638969649381,6.251751605125286,3.7605930614131697,8.674963242400715,0.6662951323333939
0.443668419776599,3.4340642118983293,7.0901742410898105,13.983304635562776,-3.177650471004691,-2.787364779767181,-0.6912628419164157,13.695761060967394,5.736523332527846,8.519111455266177,0.18760960698419105,10.5079671135659,6.663058387396308,-7.708212447051842,6.327975143889457,1.7566618839166335,9.495095842431194,2.0159981848717514
3.0254666548625875,4.814826879535258,0.011542149614536257,11.572320962086788,-1.5357374048254215,-0.1231850638163321,2.8405780162325653,12.25268409208104,6.322758270467098,7.12132190860409,-3.24949375172603,9.229570218769183,1.6686450781448023,3.462411152707817,10.309615787878737,-2.006332379187551,12.171659730532998,4.146903148912491
1.0172170589433813,2.2884436319646135,-0.32800231935456026,9.74726604457334,-5.069010266149812,1.8570599729224218,9.2028099126977,6.415360774215266,4.858870589593006,4.649963856337414,-3.1713324189008745,6.387422389110943,2.7297989384732437,5.453589804513989,10.67702656403872,-6.45419491346793,15.728139535394003,0.3206325595561008
1.7432451444908246,-6.781881514132398,5.583279391216664,8.50814758068763,-3.328154045090327,1.2979138281552487,12.242989244830872,-0.007551144521386277,8.278539971403346,4.913711218878329,-3.0935822440127776,-1.0458783439939694,10.139472008292332,3.1482494982222184,10.652911773464044,-13.735435396731269,16.45360129598079,-0.18532218982548976
3.4457067647091053,-2.0833749377383572,-8.719834116491057,8.050287459690413,-2.5633270559954022,1.3244637711042957,9.422008409480293,-2.0355016806103947,9.062099415500295,2.053120525568742,-5.164710591827546,-5.257724179060748,11.983397062063958,0.7457111002626495,9.065377301003139,-15.646842019477575,17.082520013312777,-3.7187086218229926
5.343335336202621,-9.007084712219726,-5.736745493678082,3.2954884088676977,0.6434289116468568,5.159453824183913,6.989956060236956,-8.164709545422202,10.627547674951597,-0.8067407086224971,-6.845613151418611,-9.080200275728991,11.288939380332833,4.593764793423928,6.402710537157544,-17.65728546039498,16.931347878333344,-7.056816188241028
5.971260245522341,-11.830149603554503,-7.147448926638798,-0.9710161888980764,2.483399560152171,5.673906557126879,7.0952954410070435,-11.559128713408903,11.119364394182963,-3.275222788760212,-9.405837302859974,-12.415658776124562,10.106885121792082,9.80955965429203,2.957883350847845,-19.180855282180584,17.660320925493185,-9.516036016664732
2.4974026578615116,-4.790797145772677,-16.858230874771486,-5.432827399524314,-1.3404178361886252,-1.038451044158763,10.030992443114682,-11.925782123025787,7.998423898411547,-2.6178913413257963,-11.673486724122892,-18.29149859516436,9.120810379644084,3.306993574800779,3.223150432885718,-19.924612947714543,12.238134386096345,-8.557262574388435
-0.9766165805390541,-9.47142137008137,-4.8881429165501125,-9.015707869395023,-2.527177241994379,-0.42658012565089454,17.261905585386714,-19.51872893378613,10.151554975916802,-0.20193815204071264,-13.35558453315415,-20.945921027283845,9.69789374377351,3.152782516453632,2.315623455278849,-20.37688043167586,7.207907432600427,-8.575090252457835
0.4320854203314366,-5.559245032618557,-6.393950221136322,-6.153165003602652,-2.4441486019347085,3.79855973348841,14.041708307210325,-13.048578440081457,10.742689126664155,1.9218397499965372,-13.475549425039581,-16.863254288645386,14.670178243381013,3.1945218310312096,0.13764343093677667,-15.65480250679137,6.085367350928377,-6.444467798389429
2.4265640921258083,-17.468735105606637,1.3786210537263663,-7.978180479151234,1.2523925686764414,7.437719217508232,13.74950303179217,-20.054810122046213,8.599905662075535,2.1909329846600185,-15.353740400921843,-17.078828684719433,10.951493626038257,9.682338793187453,-3.0178175523608246,-15.231210171058994,1.7415458082019395,-6.462332532509208
0.31924401294637583,-14.730707825565455,1.241828168065073,-6.189846298053762,2.99589411746226,6.682278927063462,14.432126847498973,-25.400471055410783,7.629485275677889,-0.17590694817881491,-11.665822511363634,-15.14723775874507,5.182531534512097,15.389591445193918,-5.881209850583129,-15.98108429263354,-1.9172028359872435,-7.16381540603153
5.047788282627029,-2.9116847546459783,-10.124673359321285,-11.335198827810032,1.7120602625392394,4.36434474061545,14.331732236191087,-22.835462628582185,12.714284970849663,1.3644009314300236,-12.763511484170799,-20.638943077262837,10.937681577141545,13.67558315981607,-8.25721876591549,-18.783371360402953,-1.5704726045156665,-8.451256009614838
4.697948900845586,-8.281627573419767,0.9710546860062976,-11.20702140995148,-4.845297325539152,7.417646564483412,13.350653224686983,-19.293481036833757,12.330660331750158,4.175109011094289,-10.248236643101267,-20.07717809626805,15.912030672023437,8.251336639078351,-9.364582924593503,-18.169262959835088,-2.4917405920468436,-7.492577467491733
1.418192532945115,-9.355862240529486,7.282519878346429,-9.320993884279808,-0.9533424463738642,10.373380244364686,12.074828035843355,-16.727677549278336,10.677862046807109,1.3225281043674117,-4.608281360449883,-17.368252504249714,19.812566253934044,4.390397289155538,-1.293025648959615,-18.142749609698296,-0.38402729716180595,-6.533905630130693
-0.8851747535492586,-5.5484703092604555,5.782348576030346,-7.3372992754686415,4.50101093996623,10.69247276355773,10.015959821539093,-16.309941272344872,9.3183807827707,2.5724415923333144,-1.800762147933376,-18.078655989427787,17.170414045503346,6.389731966618158,1.7970807782313747,-16.45772453775876,2.799549476913132,-0.20406283935560054
2.6707305846297746,-9.164354236810924,4.380833285711645,-9.650537493347603,6.439501103467473,7.496031619248825,11.17800790892541,-23.118470618297728,10.693625852326267,0.1122386470782839,-0.7514379165833025,-21.817754442649324,12.08715685699563,9.268821058486285,1.4682605835442164,-20.829168485806125,3.836319370921853,0.3639702727338987
-0.90257428518814,3.8202636434022974,-5.5158922927668055,-15.47944829750423,6.61990849870895,4.495077026687877,10.678077462369082,-22.699915617839306,7.381573823804125,-0.4915821316166653,-1.3626446670528434,-23.604998257204308,11.594108299258956,9.707325371244526,2.310428320178623,-24.5187146208794,3.3122619583734885,1.7132638467142205
-1.1557144975149187,-15.325854617130632,8.123924739636813,-13.6910509878801,-0.9149475049663733,8.037387118354362,4.805166781155353,-19.155896524353214,5.241652961270138,0.5656702295144846,-4.12266452867536,-23.733354025012765,7.585630903863683,11.12328861311511,1.6868261887208158,-27.624035835633318,6.891557369325295,-1.2343832319489456
-2.678607107950773,-16.69962864339651,7.506752409552568,-12.683912807598595,-6.204035498053637,8.747842801518535,3.8133313233078425,-20.88497370817204,3.492564265347422,-0.036361925854791366,-4.050945870910558,-23.960652617991915,7.776639795889695,8.14555670886455,-1.1838060943284265,-29.266225491948916,7.835850808232055,-3.498425008298777
-1.0766570236185358,-3.7191033994926164,-5.121268446607338,-17.731553153844576,-0.4582165426955629,4.185023475673953,-5.285915219830763,-23.492543091435767,6.528868060808952,0.7297159230590395,-5.444422064864348,-29.462743942585117,9.139697427337794,4.094513283579212,-4.348311599376817,-33.9375504899521,6.438142845298153,-4.6882294649819585
-2.3069895554911124,-1.9706300929007838,1.9786399090034132,-22.876851072477145,-3.5020691391259584,5.872564329276843,-12.726805249529516,-18.6776904645037,7.905114645923318,1.0084103714556187,-0.5881241342648764,-33.50123169499999,8.647365045618752,0.9233324292572167,-9.076238296194488,-29.5284597026876,3.675036312446439,-3.631902801155252
-0.31482793178227664,0.06938207911891148,-0.39317522565965213,-24.994759767544537,-3.030774847144297,5.021289559228515,-12.649880248720532,-14.643659143341576,7.1329756296725435,4.022429596477286,3.486598444446167,-40.27538451648578,7.471485574609282,1.8547376910441438,-8.531541162170388,-26.09770678358477,2.671602411779668,0.451817698725395
3.6302741490207766,7.772087035850797,-14.189857619660362,-26.23375003824472,-3.7319615644039152,9.63915363321328,-10.914609925230604,-14.906120332209769,8.997639785454394,1.4708675471637127,2.189840003887799,-41.679593809563634,10.00660627019729,3.080094158971044,-7.304130175427728,-25.696108442495518,-0.4784468498578818,0.8245486469523375
-0.042144888983551176,-2.202736171680738,-10.114074736196208,-27.570399367941697,-6.972893566621781,5.272829764745861,-12.30622818767407,-13.800917054173025,11.155280089674255,-5.083750951251778,-2.720551711572581,-43.280332591678345,4.533746231570184,0.6931080219925905,-7.933102142481449,-25.100961154928306,-5.775091756841675,-1.830105194535217
0.48449849736461914,-0.7531013179286248,-15.509983831369208,-29.297680568337405,-6.991819632030304,3.9342377349817568,-13.504375792007899,-17.578136001608353,14.777747434885786,-10.953854252761502,-4.799157130923639,-44.10100327149961,2.5764657377382996,-0.6186345550195949,-8.17232394287612,-27.925600930631422,-6.089299451331939,-4.875384350548951
-0.8445785710844921,-4.285528374365292,-8.990530319992862,-28.974149185749035,-5.741949533354789,2.010057906521495,-13.04418977487299,-21.940827288157507,14.786796656000408,-10.279978679389139,-5.217860116707914,-42.38374431112554,1.0096631357864112,0.6097460169198392,-10.365575552788783,-29.970742289905385,-6.30394099187766,-8.9948925890069
3.0019782228631486,-7.038229605431746,-4.7160774934739536,-25.42791080199662,-2.2467603547747728,-1.0856403951997837,-15.613243961597686,-18.490415285265826,12.842566011351337,-8.628616986118516,-0.2656572303080207,-38.1285314729966,1.4934651917973092,1.4485298744742696,-8.458070578616134,-31.91998448461772,-2.024403995333911,-5.887721652835009
4.211546707805188,4.856175838938123,-14.014914625765837,-25.006716364613936,5.739821932375978,-3.3996875669157305,-17.402887890131435,-16.99266336504146,11.679428300087224,-5.023194164046228,0.19402937806679077,-36.80417195777899,7.445837210585199,1.6047549973425088,-10.55539420299012,-30.550614894774483,-0.9656377205401814,-2.292255324521398
6.495118056248043,1.8073751168672194,-13.351518190587093,-17.74947356030411,9.916835918598425,-1.4163911128766262,-12.944288568601124,-17.93584891652758,8.36760684099175,-2.393445625857919,1.7277007862239526,-30.500360579170554,9.979868520329696,2.6409552926585196,-5.23158281279441,-29.768933679725002,3.02480581437076,1.2055601923762655
7.313588074894433,1.5890600101059533,-11.612734802024619,-16.35168510329862,10.870175049571023,-0.4092560836046566,-13.956374273205927,-19.366805154813523,3.004714395999299,1.7997258552246107,4.530682645681548,-28.39689471726719,6.556400904557505,5.240743876888201,-5.865738000099475,-28.793667243523657,8.38441126647599,3.3361744708206595
10.67092115933828,11.623202488447372,-17.392438255365757,-20.325058082372113,12.408438704715179,1.184253361976495,-11.064000368171014,-26.36372191791982,1.2548544672672381,10.290732184583613,5.86856868048795,-32.83752802233191,1.1793441491449084,10.185390483474578,-4.938204156872117,-30.261560695270937,12.964715003440855,7.4199508345990335
11.879542830260185,10.620399550671056,-13.795832561379175,-20.58741772978365,10.039318869181223,-1.128107726421078,-10.712575035740699,-23.399005215081022,-1.1789593297805503,14.485686616178436,6.132000571657327,-31.32203576832968,-3.807574061176682,13.1779612425519,-7.7224888041109665,-26.848267485450293,17.25401053419169,5.25363924237231
7.033140526497284,12.448035263536985,-12.05355127564965,-16.94344289269504,6.399523086383352,1.5405252124182391,-7.04263007653074,-20.336072844280864,-0.9764099853834001,11.943139244492052,2.879545805363268,-23.36209344282718,-4.693418129263117,12.460622420215955,-6.503619177766042,-20.7022397353213,16.467071565534482,4.74751675465885
2.3818066599868652,4.703562204371092,-6.110808330192235,-15.154933819698455,5.88359876325179,6.358087050777415,-11.089485173916911,-23.42500558806117,-2.141511280249519,4.811553171133334,4.607439030239761,-21.45785420670308,0.8655388001658011,7.74040528741758,-11.82861905710151,-19.05012997855524,12.459396309600137,0.628065500928283
0.855270480160436,-2.7496016979114355,0.7120389095990187,-16.589091700870796,4.878159171280234,6.097913497871568,-16.407723330301447,-24.36488034003322,-0.9633157477558925,-0.5613264446396737,3.210099337017316,-19.456841153693198,6.619142139630827,2.2400186756433786,-13.443412694622161,-25.21227912195938,7.770085349030416,-2.1241696772613112
0.598031976891929,8.25286999120027,-11.507183126629915,-15.777075162931446,1.2346842565771432,3.787402136661127,-18.21210790174467,-19.64000267939714,0.507317243086721,-3.4919041268669044,1.128982016871451,-16.577751454611004,7.000841241199232,-1.1108028735426352,-14.375376111895944,-24.34468644378862,1.6178743080482523,-5.950632180859462
3.0749543179236425,13.296529594621813,-8.392944876294205,-14.76968807190287,1.789166648399485,10.36422667742379,-15.135421890522023,-15.598109390105343,2.56331397510968,2.074590567061679,0.21959618613589832,-11.648649764011317,8.748960542380566,6.965427237488539,-13.354943864267257,-20.93958187053033,1.229431727857408,-1.0855478746913878
-0.3078465437984015,11.893076354469201,-3.8126407939144586,-11.516108462313795,-4.005478159610193,15.964961375066531,-10.595676280276077,-16.926755161166668,0.9076868889604057,5.395796049527227,-2.545435778675112,-7.501566605424266,-0.4414349481505102,13.675545299551668,-8.526603158565182,-20.270455418946735,3.0890729809589175,0.4591813546182546
-2.8119894273637525,3.358894615494097,3.014995292648076,-11.192186402361797,-6.9694705374671955,9.35897133649128,-13.186740973154496,-15.227357031428104,1.5951688802737731,4.713862114086956,-5.994208406536634,-7.945108509463589,-4.261562391252214,5.933413366038185,-12.19521260933934,-15.501235571129449,-2.471325920407402,-3.757887806928669
-5.609370070113647,15.526429425663208,-8.906446896594552,-12.626018126739796,-13.450610889869418,5.780868481981101,-10.799043632787637,-12.453052067802425,2.5749004696165576,-1.6314044020797365,-5.146164091168405,-7.412737644211125,-8.473288176886033,2.8799467389050397,-12.348852622113242,-12.979644048508359,-5.100053944675103,-4.654585288563616
-8.992964508450193,4.645002895745787,-6.568647753971228,-13.376148538786236,-13.292540872368136,2.691555286437964,-12.905371147058448,-16.807072327873165,-0.05947477210251684,-5.92505428930839,-9.376432756135461,-8.931796087975219,-8.975046826052747,-3.1021610538164115,-13.08912981136444,-15.14709136975231,-5.969015083345386,-10.629476447106638
-10.81430522957257,-6.238168020001271,3.9736158547723783,-9.536255747802462,-9.327380896652866,1.2629276361099286,-17.747868926786808,-12.468845468606153,-0.2532236099682006,-5.725656970201894,-9.407515688207575,-7.228716874287745,-7.329421600966642,-4.981556416454479,-14.123051574400652,-11.847138064238148,-7.422007874200759,-6.252637980098421
-8.827266930003432,7.389000328854221,2.1145633557726446,-7.356422165800809,-3.8989619769772403,1.0066991485373489,-11.459121232566934,-6.9579987686244875,0.13811046667065874,3.3613722865592606,-5.630030179323624,-4.54957798514689,-4.80602228608444,1.245723372408591,-12.227892199169968,-5.521191716909389,-0.3768769021919418,-2.364078610088154
-9.47726312500808,20.135486982587043,-3.2589487405024613,-4.883479384109698,-0.034718599725666266,-0.8115452398877885,-8.78542880367408,0.018459918219141613,1.7004277562194918,3.757626047526313,0.10054064174324351,-3.0427987125871567,-1.40490771783122,5.423267807238503,-12.970121689476196,-0.6614711251231995,2.861486534019175,-2.381818731199721
-5.732939135986718,15.106494982041468,-2.2834869701780476,-2.8986750937569923,-7.012179901071114,3.816130193361259,-7.382986467016107,2.991716223307062,5.703233079737428,3.9593128776796442,-1.0049856432587005,-4.466166532105213,-2.301996566311483,8.527647874428439,-12.15043515001327,-1.6625361096460836,2.195407049059959,-5.719911309733198
-4.430339330246371,7.536624491626017,1.8182444936292694,-4.234068930962267,-4.5185790269815005,0.7293535592140277,-9.98619014522026,4.793863781594805,5.701070186622038,6.3102031095903985,-4.649654019570432,-6.671158552663508,1.9754539793028538,4.308760929353169,-10.159440601012777,-5.106326139159407,3.1913566004339913,-6.6165489992178
-2.5420762698963904,-1.4022382744079995,5.8235410088999595,-4.39738945147311,-6.909646136468657,-4.505384094138492,-8.098794252216583,5.327264053586834,5.893176958887993,8.271179480861925,-7.70840210635127,-8.974117320345918,1.36863922800066,0.8721912910655991,-11.880001255059353,-4.547389693366753,4.677421509974185,-6.43893939552624
1.7873446484546318,14.559832758274464,-4.037338480870528,-3.4862784561229665,-4.22433335058043,-6.321592259836269,-3.185641304081332,7.424010672012596,7.646717331096342,10.135198621775805,-5.1030124795162735,-3.855343003691555,-5.685021527631429,5.542260545909995,-5.202532706072276,-0.9622625548143731,8.020787796672549,-0.8901410773597548
-1.5984839666404176,2.9806257730108006,11.689332853619389,-4.528109437963298,-3.0057501244375358,-2.1801708873338725,-1.3014862138761112,8.935652429836995,-1.5385432850741037,10.535035026971041,-1.4233837564319374,0.9702572364886741,-7.466655679120059,6.600030167719494,-0.18575674685780363,3.50062746232555,8.63151780505957,5.049302152698398
-2.25018630051469,9.66161621178175,4.662972957067755,-4.983764220557856,-1.7890704675070301,-0.8703182654490114,-3.2275645415471006,10.3504969516192,-7.892906742343486,7.908147177338444,3.721130415677343,3.3542677970303636,-12.081911144035573,8.537745735029409,3.170352852957352,4.837356233042975,9.634633846262961,9.52389426519532
-1.3396575838869689,9.993049574952364,7.696581320663752,-7.09935344399509,1.378821069633843,-2.782667486333146,-3.3973573573285396,9.91072362869053,-12.490650694198887,9.383531914461578,7.303155697738399,5.054582949657213,-9.276779907504661,4.128723279518443,3.3032992454985344,6.954277237028947,10.639478105194847,8.920299996181685
-2.1872633053045587,17.45169073679498,1.6492391648182467,-7.0662074417863945,0.1501327860867976,-0.5928905991296514,-2.3967819851428427,8.397612829958163,-12.79271564683689,8.71107519309788,6.783606654165272,7.145492954018849,-13.407003620734933,5.970799380323853,5.7796013517902285,7.21467592027243,9.888182948615599,6.851856940141766
-1.3749848647452225,3.912108015425024,3.806364258117539,-5.860885429778379,-4.4009380040530965,-2.0159520354914378,-4.522748505374606,10.59641195003952,-11.435901511229956,2.2774214897974785,1.7718683255712482,7.869213674801685,-14.804518951412746,0.6848510697566521,3.372614848577294,10.403826438078902,4.548644172604021,6.345956340528722
1.2924909256121393,-0.15648541922609827,1.0818166567906653,-5.338865935443505,-1.72739242598489,-0.8994175020191566,-1.1813439381650195,8.010915352827336,-9.787456695717994,-1.909514076692032,0.2758915890352105,8.300035411028212,-12.199827251809984,-0.5961524828785478,6.824720287968107,10.174020933259069,2.335792108167988,8.086203770615935
-1.118537771091572,-12.527799229747172,10.370382105863557,-5.79310333064754,-0.22783242204031495,0.8035545146288001,-3.114886496809832,3.863845797224572,-10.288863813600265,-6.29119498784695,1.6120886261924197,5.898911949550982,-8.91334263807892,-3.536374017161089,4.026387696250775,9.748010351873535,2.1753591045738734,6.896740493501308
-0.014192111303601429,-4.392800207724371,6.866990773388662,-7.028263010757357,-1.0741863922691381,8.56179345571877,-4.952165925583424,-0.08694052953118803,-11.475294882784766,-5.984754590561103,1.7765086239467576,11.115276292920107,-7.191243009671487,1.8252615777748096,1.9113470713650589,5.903134968748452,2.9930761739098184,3.265856805062632
0.6015582617400574,-11.884851483813792,13.521207214835767,-2.9895457258696707,2.667210468651202,3.136720210703163,-8.060354701122332,0.8461442479464036,-12.85849828182842,-4.310576749952592,3.601242742391957,12.816200556197874,-6.642946157116312,4.160441523982097,-3.9149688213786225,4.9871936805738635,1.8591759613245777,1.9787836800597098
-2.78696761063214,0.9340969143866564,-0.4291616325068146,-4.8099142936987365,-1.3085510658222894,4.3528514543225825,-7.361213123389054,0.6083360282535786,-15.219771921837442,-1.9522866655322915,1.5198166469839203,8.56029531785006,-3.459847793006707,1.71131107175645,-4.2727007342703756,2.31266074876884,3.4611935719724585,-2.5309682394095785
-3.6367034762481696,-1.2880544357187813,4.1766325666680935,-5.94628041130072,-6.751408818767315,-1.9501899499861999,-0.21794367911992385,4.277852479264379,-10.551215966207028,-2.034953331036574,2.954235593225857,2.9375279473323346,-9.556238573008327,1.313896131610922,1.131156810686461,2.4694956619860857,3.013862080745197,-1.2788848984070196
-0.8734165616979962,-3.0237214135116397,-0.10324116647214643,-4.9337581498102825,-11.708240400824307,-4.834742137975953,2.5294843104266205,5.79992824173395,-9.49755776642193,-4.753913800297131,2.0450523241078677,3.272281951032223,-12.529630594182477,-4.453807884450605,4.972306123162319,3.797562368716118,4.032821272161625,0.26620236001583075
-0.9425201231481312,-15.991828442603127,5.090865777956367,-3.9207978958057046,-9.831324336968844,-11.332167617320184,-1.2673583120587715,9.471517715576491,-10.105674977143325,-11.183425026901768,-0.3287962061128379,5.853615526469408,-11.403490242602583,-11.68550811249542,4.516363841176018,5.613301963036577,2.2210905527193336,-4.048141835248121
-2.3791505127520693,-19.098298282642514,3.25478824756482,-0.6612517044442026,-10.105203575004877,-16.950215717528394,-5.163018293612853,13.144163712588206,-9.641182075062176,-16.3429642894576,-3.9719770867063264,11.072211198863226,-9.888854082468692,-18.72104008216829,1.032914469714692,8.50270582125114,0.8013341886448302,-7.385873253826089
-4.304390579493562,-13.905648406945723,-2.5840914106954687,3.3800342235377734,-9.111887288479423,-14.266903695322785,-4.958169140154979,14.278777303097296,-8.299424448517028,-16.13092871801904,-6.345371510192006,13.361628503041203,-6.325581582749069,-19.115010394134643,-0.10683189912525748,11.489241055036743,1.0430605490152196,-7.305545798962748
-3.1049065136422254,-28.343985109161448,16.773882983776705,8.203079723113074,-8.413928625897194,-7.5791777308583885,-10.22322446700205,17.75825698717454,-6.764034860496716,-8.887159115133443,-7.155988563101505,16.33525362272693,-2.9598403935911293,-15.211222569219732,-2.125545823571943,11.83853494968833,3.3368572843823188,-7.029862120556332
-1.515117689374585,-5.6741529502845385,-3.1254056995811412,11.85474971404733,-4.886308443585481,-3.3324543722493116,-17.247143995424274,17.234860290885514,-8.160088219890941,-3.2055591485877377,-6.0131794676114,18.91890021080539,-8.483207555114678,-6.912036905558162,-7.464635477896849,14.628833418085726,4.752947860797582,-4.312691231804225
2.125154740171526,-8.592411637625586,-6.421739251828418,9.159203533831805,-3.607257012560675,-6.116653170579889,-21.537624307009736,21.107162609199094,-8.67895849847785,-6.508139739528901,-4.479450130566704,15.936755753030138,-11.274448666127839,-4.276218933080612,-5.772344634511029,11.168640352658837,3.0451589434520585,-2.3767353986467614
3.5189673773427126,-7.2154821756989325,-6.689553207105426,5.389978513381852,-0.6704917642362043,-2.0643808389417595,-27.68453061676264,20.87894937060477,-7.832381417564391,-5.513471021183072,-4.312621828400385,12.662384774974548,-8.403866673592882,-3.2021620984082997,-10.525405235862932,12.590980158419843,4.463539646358508,-4.249381206909641
3.2522637243808132,-9.16065672633614,-3.3429112764306375,4.25808789810795,-2.033161148560585,3.1602078495966364,-28.558798146191105,19.479960650989682,-6.889930579561199,-3.9325700204657474,-4.731414491919716,10.560698711574299,-8.660691786830633,1.0953441145262843,-14.790081132542591,14.403638010574188,5.687679646023375,-2.8016100643850805
1.325040724885349,-11.302874977349664,3.4228604177319104,4.2986844227197345,-3.3983501775397817,6.139086128188008,-26.21118854036267,16.226599170126406,-4.8750500978236,-5.378796122921127,-1.1458960942800385,9.143452902916938,-6.576122572402557,2.3661853852009394,-15.538945400579909,12.505029168087194,4.764376117244467,-0.5725194460939407
-1.286127404229174,-6.317792730964461,-0.25964835107377393,2.875027618285757,-3.7895063172115595,6.2863016920327635,-30.895712499346413,12.7790524223119,-5.987042824382718,-7.703702135052201,-2.0522717057308206,10.754475797088162,-7.130734182998566,1.7822354596111551,-17.850163192451234,7.578797213520181,-1.1384942488818695,-2.3473346414947427
-0.7725921198795309,-2.408645412903556,-0.23007686876537914,-0.11052210004900154,-0.7652102340331624,6.824554115201191,-27.573024949357126,8.649036616164587,-2.9015967648394367,-7.879921282803504,-4.227817509841806,11.487499055790625,-4.074460022147571,-3.097968468610544,-15.27828599711323,9.586070035742843,-6.45448988967364,-0.21577451155157323
2.67032762794568,-13.149843100820569,7.222556909716721,-1.435241548717412,-4.97017908935198,9.804650119999147,-22.688482614161806,5.98502593107269,-1.7711665337989873,-9.716128675364573,-5.133413813267466,11.928508910458097,-6.29418155882003,-3.875880200681488,-10.85066580112148,9.151741908078261,-5.617169980200098,-3.2600044896733356
5.429291827591024,-16.275404190247805,11.453546760245452,-3.4428991646557052,-6.443346205921143,12.199193989255509,-14.581848803962446,4.201076801957243,-2.986398528425575,-10.08729993996391,-4.183095680328665,14.421329381553106,-11.739111688872878,5.21028734516536,-5.934472747446127,7.83837287238126,-1.45866004277128,-1.811903689964717
6.625377025244408,-0.1640397069972197,-8.924165419360827,1.0931946800318624,-1.6690551014996613,16.840254481451048,-13.995418901124275,4.664399440391213,-5.473071476260746,-8.993458452336391,-4.794865489504112,17.89176199692084,-12.59665494234312,16.152579774743437,-4.6312934793871845,6.915548566104915,1.626389904539554,-0.2660655933160866
5.574975072643151,2.9572150373057156,-11.820107096960983,3.872148426028434,1.6377112283798443,15.62223354860534,-14.386067419301225,4.640577941940775,-8.742908960552287,-0.5751632420609487,-5.699154075593137,15.601457717123477,-7.499624982432117,13.423396603956148,-5.671538749078013,7.262222427079742,2.7590078761204113,-0.9662709243116522
3.9382634024000605,-4.4701764932797925,-6.804750722532779,4.503346923621322,8.457476627720574,5.517735743519129,-18.390495646309024,5.985109155643327,-9.768531719091559,5.3041304368099516,-8.263151255684361,9.894235648075032,-1.7215600694482793,6.495518743418,-6.320753064779211,3.11662027128585,2.7204028968116774,-4.791434092235267
-0.04260164676852088,0.6986910899301932,-12.042450320328534,3.279778626088177,5.704083619339252,-3.219181581188913,-19.66089204698504,9.381596014013532,-10.210130399026111,6.593586478016837,-8.971159855171948,4.4811215250023135,-0.14536575649978456,-7.853779174687279,-8.141421402154021,8.346172338423603,-2.884076767097959,-6.077400704369655
-1.4847376012830706,-5.9505952684399634,-9.66185424044325,5.182002899612538,2.2643668452503825,-6.6822140112115544,-15.7557540336807,7.408047982570134,-8.700504072112018,2.3166038519888876,-12.02244420376326,6.491160213232005,-2.3804278697616557,-14.585225150171677,-6.73890653406871,10.939006336835341,-4.191053279234369,-10.87894497301764
1.1743746482736668,-4.593491349238277,-10.600644608107135,8.354536651940832,3.704798355112316,-7.2151522993953705,-18.29629301658955,14.029518582593727,-8.560021693874406,-0.20251062490502714,-9.311393426815668,12.408701088363195,-2.8602702366908828,-13.015234998068843,-5.92182139652053,14.020198252907747,-1.2982387464523413,-10.11389117932917
4.8096824806509035,-22.281167220873208,-0.2101760655916307,9.770003226486386,-0.42401862637251675,-5.013316682847185,-18.78622543490981,13.718422781378347,-10.862922543994166,-2.916935515590487,-10.2131322095019,16.08133268965772,-4.807611514451179,-13.788522382112092,-5.983100319268152,14.074096252987957,-0.1628100921189537,-10.813590521231445
7.858656908436626,-18.97392451101183,-7.494813531938532,12.455805139953856,4.3312434049969735,-11.79564047239006,-17.81143714201884,10.674038026973477,-12.777134636245844,-5.04543272493248,-8.184573693319726,19.852865059836677,-1.9723677729979068,-19.444208507120713,-5.750811617513348,12.565591715102531,0.09409720238389063,-13.954614107348416
3.973539465089813,-15.668151484708101,-6.086983705113708,14.16582619530439,3.7125368835565427,-12.229862669154056,-10.391322472187955,11.146453290320192,-16.353471325441188,-0.6309039959852398,-6.2530896785093555,19.621695470406546,-2.5577988187709817,-17.091491591543754,-2.4904999018993577,14.37759534465912,3.6717104927595283,-14.068122004163262
1.7482057098958015,-15.098238070821976,-8.096263339736332,17.439178687331903,-3.8426790199680183,-16.863023093048938,-4.533754958261287,18.846655288674334,-19.052830510855827,0.1702217396051371,-4.1256889539140165,19.00118071173239,-6.759227953131818,-21.08607929445239,-0.3037517818148663,21.756257246706735,7.34726859655295,-15.646363589622188
2.940489174959562,-10.42811475724955,-14.596905002267384,16.31875071773262,-8.275673552167062,-26.574044947729558,-1.2152506977246205,23.91120386264972,-13.648536895896498,-5.962442706439523,-9.126684222472448,22.97188395788197,-13.795399253499708,-25.861500218532537,0.3211822771245938,27.181951859848958,6.0425130214128835,-19.861224907387594
4.23002068660462,-16.79470268220595,-10.451976850829528,19.398432844958993,-7.242676936531197,-20.464175021933297,-0.2404328578998296,21.847833579058936,-12.15248832524897,-10.630355773270171,-8.560551673378635,27.725169770324168,-13.02162321291242,-23.995785830018004,1.239837278319909,29.678120527219207,5.128563263700864,-19.778999416381005
6.788686898641772,-22.967332295180388,-5.817902203402271,18.377325740094648,-3.8687523629188387,-18.162621880507867,1.1251765878010573,22.12933488290888,-13.490443805478156,-8.852996874304711,-8.970342550837348,27.694561370672254,-12.738810074852783,-22.32499758050253,3.135854996003803,33.1510898865501,4.605362948231683,-19.696620558227366
10.421165884488811,-13.809023621813322,-8.40966134981409,17.161746732591745,-1.8649089944029793,-15.567762839925983,2.3933500929149467,20.2634404419712,-5.748151537990475,-7.368774312082511,-9.086489170180798,27.56764266560523,-9.43128168568155,-21.142128261288207,2.200620757404991,33.596907890038594,2.7150162568778753,-18.930476918132616
9.267986572594289,1.109795838976881,-8.266184103656004,18.681434879808606,2.089201748555544,-15.902305323776233,3.466490824208403,25.234650154862884,-4.0625521054783125,1.2442758538498255,-4.416718740794604,28.028028180045197,-9.251474323980531,-19.079989019351565,3.805347009378689,39.414153737721946,7.172428089144478,-15.820379598694348
11.727707737808824,-7.508164177771903,9.847117184681514,15.416750165782975,3.0130209704426942,-10.181738830376942,7.274391546812552,22.589605412439596,-3.746063220116966,6.243777814691889,0.44907133817904743,26.536624977645808,-12.59001575996755,-10.865081348042342,3.0671829784492957,43.08319322879771,6.9422172076820345,-10.561636716196901
9.304098902038223,0.279144520988714,3.1561320012792944,17.328787177088003,4.519871328530433,-6.218683752951662,6.688097347563776,18.676045419447345,-4.603357034668791,10.266466069986544,-3.2782995549386045,27.683353120913516,-15.735906841608664,-3.7240974486861846,5.650313268676859,37.47502136412837,4.563428270963597,-9.013705302129344
12.15355775189008,-5.99745985625135,2.032396657849572,16.70258865278816,4.168295996069631,-6.942873070737697,11.2781263359282,12.615035818294881,-5.462526712431303,7.941140330003783,-4.465833490828157,26.878303079430633,-16.052381728173017,-3.4188634125746904,6.76954368083031,33.82028653939418,3.4540256631510577,-10.688289305493774
13.147061776961229,5.2055064978167085,-7.391509372259267,12.85455374321419,4.204410062178688,-6.885473708298392,13.524891460182761,7.043320152519832,-11.011128255694823,10.400758284420865,-4.871354717279596,29.297337334184952,-19.301238409615262,-3.796961050458068,7.792116985935946,33.19323044064335,0.0982743321226538,-8.749339634891774
13.065865237448921,3.5165207076201863,-1.189461754041722,12.327753497462393,9.706403454652328,-5.362881460421148,10.010430023571132,4.695299013947883,-8.553638372576609,14.227274233683563,-4.983137381178066,27.03017920845946,-15.521376904459817,-1.2450734589782684,7.253200783605697,28.562500611506977,2.7970259462820315,-9.349286750409702
8.491939401268723,8.27185014774847,4.329674321685398,7.895516744109718,10.22488578033833,-0.12896789076349524,11.574808566981073,1.3716728075445968,-8.930047616553871,11.803359541308692,0.4723504749342933,25.64331821502178,-12.818377363571333,3.846148850446493,4.664539319947606,27.350088457203448,-1.438254961671487,-6.628659234588573
11.730151549353167,10.975306727446775,4.380646395084376,4.050100280974391,10.25210123628859,-1.828425881347938,15.971955540769759,-0.5837900527183084,-4.132401189327043,10.941608401735982,1.5340327391870536,22.792965001161303,-13.047722794915309,11.769659450992304,2.4676082443194725,22.622295942522662,-2.158245959896311,-4.298444411624799
11.54985345936588,11.333952957672999,6.776049861958543,-0.6733620741100506,10.081011532119138,-3.2345814987041743,19.29561681433301,-5.272732524582327,-4.707713438963954,12.32559987076817,4.15904429023667,17.20956348274506,-9.763986543368393,9.048670432691017,5.252352643555128,16.332277790216235,-5.027151422247934,0.4734387252644492
7.755721436816701,6.906381453847727,4.191529757919522,-1.684957428628385,3.7544833387115775,-2.003647456720193,15.491066891620726,-5.468500174116521,-7.823886861083662,10.48647527210085,2.878563713781931,11.627523095054986,-11.756347689940007,5.155962668368449,4.3272640564844185,14.046523564512366,-6.822321001512071,-0.027965062094061466
4.15639904933845,-7.190258325132,15.670320301962239,-2.8909970775872935,-2.868029792459314,-0.8700386078922855,20.08593968439979,-8.983730955357416,-11.918373147670337,11.18601594974483,1.0129654669885166,9.464855679416875,-10.040274913304216,2.825932786701893,2.6221041667508516,11.95637828847316,-7.055520655294174,-2.0916557780606633
-1.298934600975847,-1.6586075636715796,16.016698761995343,-3.3149060857973236,-3.1458120697974206,0.5568782169123194,19.310545823110655,-8.103482489833567,-7.616003383561986,9.05302078642499,4.519382205961419,3.7878509026245872,-8.815030144772866,7.6250516827423365,3.6525801254237162,6.1555278169309595,-7.679959375962969,2.680937684371381
-1.3836151281153883,8.169105580544954,12.554969191819048,-8.034890165013403,-0.7898678413918474,2.5700787720815743,18.73142717312246,-10.054446934187624,-4.9754975762689355,11.704768030486644,5.6828621393831416,-1.1065631144672992,-8.373564077290048,12.814914774721306,3.8053830391849637,2.210457432941709,-5.277669931212069,4.719361778371862
-1.9571153251583233,20.437421321540693,4.015553823034262,-8.164098927704101,2.832584619127946,3.118753362130506,14.637638905192652,-6.438078262660547,-2.3366455845822216,12.793479032519262,8.214408201710565,-4.339480758036807,-3.832965579091155,13.121983343340661,4.154774487083879,0.7071063723917028,-5.6105120978828875,9.004165716639253
0.30091961639177534,19.130507748716784,8.562764478023885,-4.776772204313428,-1.5559496061325864,4.351375419222062,19.43176186677315,-5.750619681088413,5.085811714710102,12.612101431957536,8.988980605643707,-3.469474113594096,-3.884747837739809,11.3783108426929,7.9234852376776965,1.0595197560790517,-4.283940069047778,11.433728305466225
-1.0549294514752754,14.502465209145079,8.129890686357246,-4.025353020873858,-2.431866482810144,6.072632902530406,19.539416521316006,-3.890466054491485,4.205768261469405,8.035561942552016,8.10424403614641,-2.79350081711641,-3.2553656799037736,9.732346271523085,11.205229897520466,1.607506397341652,-7.157470098929826,11.715079591890387
1.2020020286872088,11.240902990179451,6.03726636419419,-5.030927807735971,-6.045270383504439,7.989556310829357,22.77326685867071,-8.474941152728775,3.128848831995853,6.778796434947138,7.708674730100277,-4.167076421820131,-7.901912567312415,11.406773482028253,13.511742809084549,-0.773992090595911,-8.371688928789089,13.559216294570994
-0.2526245518517829,8.857570251410175,4.921620542042241,-3.496562771896226,-3.118684705047764,7.563048389844891,20.83244812888226,-10.226579742256966,1.0738250408903216,7.865201933580746,8.290566314117175,-7.199589818985515,-5.226509895548121,9.956159753388482,13.280521969039595,-2.9599397555189526,-11.442325615336856,15.305958703336984
-0.6335878816452709,13.309627075808228,1.4625593979319937,-2.9379440012097735,-1.562394820211356,8.992396216743172,20.846016858521445,-11.098556699973894,4.1931692088587855,5.239973028516958,12.193708414436038,-10.426196061028172,-0.11201314746838698,13.095444376847597,11.683480860608903,-7.489450534969222,-11.87717374598619,17.24828114513425
-3.261258909373371,7.604664665275823,8.062584570245157,-2.0855289756446593,2.041612036906611,11.789315597166748,20.372569331187428,-11.383865270451068,0.9633038136999055,5.934441569676669,16.976660294265827,-13.553944327240856,7.832241515920984,16.527664292090662,9.59955847883282,-11.139832592094326,-9.187993437805474,21.436996462284256
-3.741046912998601,12.055530986090634,3.2369611702700642,-3.7714009098862817,5.447199980188094,12.73110586310575,17.361331042323847,-12.938022448156428,-5.588344297339876,7.214165504255725,18.830771727626413,-12.676548601167653,6.594386246441227,15.369909679647082,10.544451506990749,-9.90713299567648,-11.773398308544952,22.207955180970483
-2.3659324693379036,-2.6350579726359253,10.423514078372696,-3.1126821871958983,6.896522093552338,4.688756988393425,19.52729971769418,-14.19852419037976,-4.524070270136815,4.684521339556277,13.849733592881776,-11.700343213199222,3.2058137896598033,13.333151532979738,12.467364119738347,-12.092274833175516,-10.355950125293036,20.244760057093384
-0.4054733012212992,-8.146319542495428,12.629763067919598,-1.9648798912673149,4.827047204260362,2.40859298473171,17.495366744656295,-11.845026962180215,-4.437716255917734,4.986210393685605,13.752474010101183,-12.18787781503418,1.3775549501032174,11.7845747651145,9.801820503227308,-10.077970247033814,-11.57642138102327,20.332638023267716
-6.160584139123442,1.1859332152944135,4.679813786340238,0.8438882157192031,3.9263397661451016,-2.9962350016849038,16.83205591131343,-7.147100810723794,-10.798075732856915,1.8691124954637441,16.292863057473262,-6.814848741950074,1.5002785492975228,7.110819230221445,8.797930036476926,-6.793967951002129,-13.188729270475973,18.174645244806353
-5.373241432700301,1.0449609849421613,2.980131777588453,3.165140591600325,6.440520983010973,-8.10770031645942,19.29523727748017,-4.694678711464109,-15.499515346093311,-0.2721986070622533,18.63882315222059,-1.0501172777344916,0.8396068649079655,6.538533634294347,7.600208284956,-2.0449695516459094,-15.583549000151448,20.7044770478371
-2.7310228840855437,-5.248835136879502,8.40960123977342,8.123913053735793,5.240569255685922,-9.117145090966972,18.927817550699224,-5.26904150831344,-11.022347264294766,-1.340089451979015,18.934852878087916,1.9812401106302264,-4.0224409064269695,5.380122093358722,9.52902964357298,-1.1045106234543827,-12.60848619149844,23.527529930853017
-10.050520866239848,-2.656125298967475,7.296102438486574,7.809916183341786,5.014049790194522,-8.661322049682578,15.143877250354214,-5.452186925192803,-17.58168097684766,-0.6509798202193391,17.864550816401145,2.7674824371874127,-7.714647896068232,4.709795111043688,9.408543703353692,-0.35927285270939713,-11.294940368046907,20.979648787030733
-14.92920781462514,5.014476425299418,1.3974379426922963,1.148901779213134,2.440593348754716,-6.251935975489297,9.896596233069568,-11.298913158976198,-13.302139135851446,-5.431566091203239,13.865386271922404,-2.5000727123871425,-5.158769436940154,-3.187433688209186,7.727047559614637,-4.594503987159381,-10.959348547704979,12.474880005782797
-14.827987513374275,6.434709878097665,2.627814671769301,-0.5308459449005314,4.356235915896892,-10.092230267094209,5.041494702071368,-10.504362914755276,-8.633055586191853,-4.060600408560437,11.722580401598409,-5.325233315352742,-5.241616724336035,-3.760586180038982,5.558783314695512,-7.755442974253903,-8.964991895768017,7.095385256276617
-9.844522304784965,5.608579993664428,6.983227294131473,-2.7958323914342733,3.5342991453021857,-8.560926820888627,8.586528572281912,-12.44369683920962,-5.039251334065605,-4.350724778820287,12.70567446068798,-3.3642457563238626,-7.767830185622927,-1.013655102745148,3.587360668363037,-3.6896713225606295,-9.218219104375116,7.184941145034266
-11.600087424335966,7.02838028177547,4.404889997892871,-3.009313352242825,0.8536973734495406,-10.935503673073477,10.57062765460659,-11.550440946982835,-10.235642058572811,-4.2511489947575205,12.322401782938531,-1.0117412266167438,-10.784210034423033,-5.591359744960956,6.40269747732483,-1.088747289991911,-10.058886604988984,7.07938859807087
-11.989094141410058,-4.052170694677846,14.131338438700267,1.1724816104071984,-2.4160238484936016,-6.278286407325817,13.630568319910658,-9.777766833401532,-6.057841658122305,-4.445499079206618,13.209509485176765,-3.4436135349260297,-8.724219253185975,-3.431011346178156,11.075064153741561,-3.761342323738008,-8.264325905942936,8.92718676951138
-10.523256985980307,-8.687434177747884,27.080363076647412,4.573676404367658,-2.6615329485167383,-4.745672241625741,16.10618445748751,-7.418664084661331,0.36518186295117516,-2.785326063986279,16.050588643427943,-1.187096125203377,-9.302772684116373,1.6587122169513524,10.76842004643552,-1.8440443966364963,-5.201781215097991,11.654088413789339
-8.862760291153013,11.482281984080993,10.63423846395196,1.8230789286331124,-0.7617541399527405,-6.728284154324353,18.77875154952267,-7.5981963098128205,0.34193719279106816,-1.2238055075019205,17.329946281601163,-1.3712388814743246,-3.535310855360139,4.2089513072561875,12.22114892340865,-9.204272429921076,-3.5080462709540106,12.135032776980665
-7.398237281039088,10.948507713211555,4.930255045707371,1.41689566408952,-3.0644448195293643,-3.8275482970727013,18.42557582975182,-10.707009940568891,-2.7095067249340374,-1.4211391570381746,19.098379400331712,-5.0703123764868465,0.9609105809581564,6.758780814022481,7.132341110824386,-14.025459733272744,-1.620630892349829,11.639556457665819
-7.887529049472292,1.5278662027333225,7.429270342953556,-3.090301656281876,-3.905460079568143,2.4916776258020157,11.921619380541319,-16.842777724452052,-2.5390060611739766,-9.139153224191718,19.109743241327944,-9.452278116125843,2.9163897291975136,5.792495586422171,6.43966028365468,-21.48348639699926,-5.9849784945465885,8.1168319499695
-8.768113030314304,1.87302225299112,2.4083465046433803,-0.07725986892261849,-3.8707501114902563,2.9519168863538514,10.790503428476057,-17.509290804760614,-2.0762441958436515,-8.166681737600902,11.895186451000802,-6.2162646592545325,-0.2079253336251483,5.118720846725814,7.408685042952266,-19.957101157521393,-7.811923935848569,8.207569697073986
-2.2273707920672288,3.9760773935896285,6.859888204875956,0.10428217504845172,-0.4212171506181137,1.6548033287602086,13.957998863994643,-8.40962267308526,7.077393653740277,-3.2889721747262555,12.982270660837333,-8.057815158499931,3.6975750316256644,7.0812155931207155,7.793281241932693,-11.79010949767455,-4.367080868449892,7.614812342039792
1.187661446729603,11.645719488823868,-3.337608868784997,-0.9831705503954793,3.025114692133833,2.3113399953663016,12.244282309232862,-7.7081265725783545,10.663926806711654,-1.7327148073750118,8.894207565843786,-9.312818048902315,3.30464331909757,8.750220750882281,7.886414536497369,-10.068668182368985,-2.3888626449501613,8.096381532741718
5.090320282076314,-3.0481293726279626,13.320351990764738,0.8596454520651742,1.9759864379419172,4.335589507129073,11.899451515741385,-5.932014806937851,17.667916926407237,3.924061849441129,8.029541569545756,-13.399331993210211,1.6407202591413217,14.032018967568783,6.711498529033413,-10.105225101914833,-0.8030623165937119,11.214782575608398
4.304746189609943,-4.655673989880198,20.114417320871326,1.8240585393249142,3.169779498197866,5.676748514171338,11.165667758137063,-4.64382383799829,14.71030331928515,5.771064840895146,9.704646195233583,-8.598466295581698,-1.6847739390054244,15.016306266151679,7.979516927736803,-5.942677322420346,0.8785817110089305,9.548007847576132
2.2489612671668366,17.4678145982016,-1.2174537368823621,-1.2149991884213698,1.2353157822136165,8.092665650485307,13.753924002941684,-5.015458693878788,17.416374194034788,-0.0003729141707992101,7.86471824872144,-7.9963965886139405,5.144798783442839,10.62882043333801,6.221624459388521,-3.9287969344522375,0.11694217003948637,5.635138409407236
4.294142903800766,1.602679659407783,13.974119093436926,-1.8121375236026123,-0.6047013919955903,7.2864097680537405,14.00006843981789,0.7656881574713506,19.82905721879068,-0.5971018592419934,6.220727579343758,-7.393878805942164,7.578486928816481,6.631341043951168,9.54340033581893,-2.305763335283258,-0.9395356031778581,7.581745727817741
2.3347008370869373,14.644507968738301,0.6490369805281961,-0.35800848311141875,-1.7643274119109473,8.336192868190755,17.861218646489917,-1.6560823028427452,15.795964564190186,0.46518579984184166,5.358595422949939,-4.349508483831869,7.862470533706048,6.246546434632179,10.815814928684713,-2.147830097139371,-0.14240519951977149,11.579156220901233
2.913706313116693,6.494913355301204,4.706393730660701,-0.07533895119859357,0.9791415989908558,5.773191104121143,13.22780862452429,-2.7103223066737954,14.496973541831977,-2.3800138177315704,6.157215349767588,-4.2345006260792175,10.489057838508788,0.5875551995465678,8.085697475966633,-1.8924914931022325,-3.3511538331623747,9.912385981586027
5.640531516527101,11.138823646162567,1.8293678742423563,0.2077421020496546,7.821019855236708,2.038857659726767,6.740556872812592,-2.8853308751776727,12.123481924145338,-0.14820041696716382,6.761063364579631,0.08012026713338827,6.864420037258347,1.3732691679066855,9.458623108298928,-3.9812088009076056,-1.7766066342038185,11.370608500603518
9.53860268098154,3.380575882585226,1.881346919494761,-0.9736536581775104,9.288505582094414,0.9418541542148535,2.598736821656315,-0.4232785697326884,1.351208701495986,4.133225182252655,7.267769479229449,1.0746684618162128,1.9691542888731561,5.478613765684848,9.465739756776067,-4.507689823142483,2.0421144693088067,11.754517180609891
8.650801785304616,6.169772734522015,3.9833669345992795,1.2633381723979376,7.432410628469171,6.486157755568055,7.150090666086308,2.4296971303385693,-2.6828470743353607,6.5579434480304375,8.556224878169058,7.6359583748708095,-0.38803508878698256,9.778514549586333,15.919646714605324,-1.8117699949831212,9.765171428095709,17.021209787478874
6.590469837841308,6.420310504532221,5.889255647672954,8.96950717513247,5.670755496421119,9.198977557064485,11.703067150089355,5.771244927640365,-2.029448818015927,7.418918650953989,8.575587841882804,13.90448549027003,-3.9180897716493734,15.640153287112891,20.031126180278505,0.59085543543354,14.361188368007959,18.479122495978533
0.7208529792211058,-1.238953284971001,15.997534531194052,9.449323822784844,6.054352622803408,12.791317632025967,10.39818806218139,2.2770256836761877,-4.501166845031424,9.743532790042352,6.6422243633219535,13.04416773980894,-0.32004944473295094,14.7625956714549,17.40555741570822,-0.32721964178218355,13.1933887641462,14.663363724751488
-3.3915519702857715,4.676717181699874,6.378045843631879,13.054484925256444,5.360496780814581,7.009125273366781,7.239405577210395,4.837852869438148,-4.336145854836305,10.992677710238096,5.099889782299952,8.9612743425144,4.351358317342985,9.098970346958936,12.535172824118023,-1.538620987628203,10.2657234613318,10.554452262396495
-6.137369823042245,-0.2470803828432082,4.667886150148833,12.265320524865242,0.07350983559285806,6.403413828679081,11.797161744015966,3.0043404554962754,-0.7530755884096347,6.478776038236493,1.2141364076477004,3.6089196115687123,9.021950554714845,3.532138438496256,10.986438774034074,-2.2621019034983347,8.507909202847824,9.863355847107556
-6.93064746605156,-13.471212217807391,6.3747557298722235,13.52721719716264,-0.6267798076408229,1.5990503728802774,11.473590341881001,0.585132858289013,1.8534936596008338,4.991019637579537,-3.9408320751037493,-3.403567978985085,8.125288085879856,2.847303649518896,8.364731002165325,-6.306328972191101,7.236327389109347,7.121214269140812
-2.060383570262241,-0.9130947199064758,-7.154017184855411,11.859605632891167,0.9158432524680709,1.2875839715688715,12.909398757469816,-2.2244615117246678,6.218026265951146,3.209041727022728,-6.068106988654975,-1.6268508465352194,9.376384170902497,3.0404734340441815,7.8927278799437826,-7.421221015143997,7.622857530035798,4.671786211266992
-5.2963117531981005,-13.15940520134902,5.097775191391432,13.414898630834493,2.064621540280462,0.19550692032631378,11.319337641611515,-0.4439046040582073,6.285789603615078,-0.6249994637271645,-8.097452802738733,2.493619530447305,11.017451018461154,1.2795485364372219,5.371118476113818,-4.532556532886856,8.78856764607716,0.8548627503033526
-5.993730053809713,-7.240706130356136,-4.1362560577708045,11.454687047207472,-1.5750413878395113,-4.02095620573284,6.508070354945296,4.071300189535681,0.20133344813166953,-2.702453310947054,-8.075747301428958,4.660861969433915,12.071962461681656,-9.95514137054081,1.5811356003112635,1.285416259422661,4.092720151288683,-1.5951669311010015
-9.816778565859938,-11.770683701504577,-2.0431524955448843,12.033725478487431,-1.0186312108017124,-4.916384137865643,3.3584617339492002,5.168709272966858,0.8555258813001427,-6.734313937597411,-7.956178141347159,2.2380769131423133,11.56339200038854,-12.303964975614186,-0.15688765292053475,3.4896162863619278,-3.9255938954506315,0.25140169034210835
-14.128688919601474,-1.5536094948116164,-14.697572494120898,11.44099431836662,-2.6138984323490217,-6.201760495069133,3.530670246596756,4.606156357664682,4.342103195853856,-13.111211020077379,-11.547430256013023,1.3776614899901762,13.39809977374225,-15.044430878929948,-1.6984793265604043,2.6659781085593592,-12.238993651566828,-0.7344741748435677
-12.679355806694389,-17.5080453655569,-1.766910581656278,9.383494708169113,-3.724081075320818,-2.505898971776233,0.09097235375278956,2.8719248846062904,9.489217893391311,-21.93079969552024,-9.865024784065348,-0.26421045962200296,9.372885744281161,-10.852231264518231,-0.9928587191282414,-0.794878569403732,-15.085680455960427,-1.1348013983746181
-11.328233142930749,-16.176265891552006,-5.732324320662762,7.130751508411646,-6.302330550129592,1.8742705595366496,-1.6871387712009778,1.5285337835752602,7.800691420896146,-23.13432877256082,-8.670801739436993,-2.1016327557088283,11.890332615227846,-15.254968874112791,-0.3838442473217434,-0.838184472042083,-15.981339855292282,-0.07068805168165859
-11.149545027110705,-15.331948923607726,-4.620862126224425,5.561658532550809,-8.493145992599901,1.469925443640601,-3.9521589396849954,1.943186848129284,9.139999799122284,-26.780540142161257,-7.378848094477675,-0.5213091069507994,11.575346583571303,-22.295542944635695,2.5699741760789276,-0.8819704555586929,-18.636971762364354,2.457838237466011
-9.018232187426014,-3.451450482942796,-16.79221838398088,6.238713727048899,-8.929314820800993,-3.1329769844480646,-2.8954624782064755,2.6510137493032584,12.43295155432152,-27.693566819272,-5.696224064583758,-2.0663479978407215,18.584381394665,-30.02081934810484,0.15360094988968243,-1.0239035306303026,-20.708795081523697,-2.143131125070518
-9.231223066069271,-7.878907387192971,-8.066222528463506,3.5954000004727944,-13.27498131641535,-3.8288332948088746,-6.232037642832708,2.2848022377526576,10.06228599974561,-24.310876766578055,-0.5955731209401209,-6.736789093553311,10.651520566834277,-26.614231459380107,-0.015694990289922828,-5.072644133495744,-17.80221505221632,-2.4476677781794898
-12.569766934112153,-1.5630954294744281,-11.841859366040644,0.7567391675691209,-17.428515314698373,3.5816504436097634,-5.270372869732704,1.2351797245644032,10.524268925227693,-28.058415930299507,1.8682914941437163,-9.552127051201673,3.8903389733489546,-16.95868544611744,-0.2817348189582578,-4.531976724556449,-14.70246336673648,-6.95202206140087
-8.975103393745975,-9.211392922873037,-1.653918148030462,-0.8124284627876506,-13.089003388505924,2.399011881079193,-9.776269935899244,3.2131371224041576,10.986867597809383,-25.16643183408981,0.914074608143177,-7.38735329937027,0.8399850726204328,-13.945021373898605,-2.793024797073352,-1.3550632225956594,-10.335306194621873,-9.699098425485609
-7.920019576336392,-10.608617977918092,-1.3309234038237228,-3.358256587129853,-7.385454615064301,-2.298535170140143,-15.941105125940012,6.85146319298984,5.395343175233557,-22.373295957950837,-0.7238401640846757,-5.516024598475188,0.03563942805340181,-17.475599058945967,-2.0807679723232706,0.7470958850367286,-3.6265086004562965,-15.474152328492487
1.6308232974659305,-4.680506049953559,-8.23615114995746,-7.271401675852891,-0.6108358260782749,-3.3819642417052456,-11.753004873671195,3.4586165238925313,10.546867307217362,-20.9485448608694,-4.705667331481317,-3.4498906932323674,4.30942260738313,-19.737816022544372,1.5620254708384653,1.5791795267369486,-3.7558972709428886,-16.855221244936423
6.103013954702407,-14.083623743516124,3.6073234660591806,-6.594766883464352,0.8871066896942734,-1.9254989215634195,-7.95434932225243,2.898026666098816,12.476422785492273,-15.130356343546202,-4.48837100882937,-3.825748639401966,7.704257992258243,-15.751143416785535,1.592249559212247,0.3599209772694526,3.0462711176660573,-14.525934558715068
8.62161512891967,-1.4150277928372272,-8.476965005263674,-4.160451727508706,2.4795558858860085,8.32096783017493,-14.115625928817433,3.9001411334795657,11.672337216385245,-9.21565398253851,-6.419736747022272,-1.4677758835793875,10.4155060082514,-8.152355285829454,-1.8924757222897721,0.21436392056881526,2.717285011462021,-13.271546164372275
8.503038111083525,4.711592397459383,-13.043256193332406,-0.8474006318041338,4.166519427754351,14.75959932590649,-10.802973466122793,0.8008094749410481,10.966723234065416,-5.645862847335769,-5.226278719200809,-0.7706079841860538,4.532934054302393,11.750073023054057,-4.00930144478219,-3.3497508701165577,6.8784195586029515,-8.892797238662146
12.388025106448591,-1.660857224426648,-6.282929094034838,1.7818381301778552,3.40890414979979,12.995809171311791,-4.461831924274577,1.3149919830143464,12.801061769529,-2.8584392345707554,-2.37289482885158,-1.343650788003867,2.556776614366903,13.97520190778802,0.612909746943231,-3.8870148892675744,5.373274885662667,-5.491336198385408
12.65928864655212,7.788395695468816,-11.829186552744112,-0.4720423278864949,-0.3792279037959698,0.783481380477689,3.638218907438758,10.423232574874415,11.901871535594628,-0.2674154346271358,-1.4729528863632897,-2.0150477532745983,0.6784249577909058,4.968429676743526,4.64978876393141,4.169061560508851,4.061321515931176,-5.606286902260791
10.586395986888366,8.840258909897328,-20.3069140835617,-3.995729271100469,-4.951739823291684,-14.748356848079972,9.883813502079938,8.20335178538493,11.882524848498583,-2.5603403186755607,-8.483606053362008,-5.714566934396769,3.3901776480598644,-20.836746560917206,13.96076125796192,1.8728762709689555,-1.9403204430584333,-12.167403411679182
7.243599261130562,4.815122461374696,-20.192525720742196,-11.133031663884271,-10.796911026330298,-23.443288233228632,10.759244150010579,8.718064076347122,8.64143180488041,-7.295746362781633,-11.197667378473366,-9.414853725804475,2.5864841476006246,-40.19779551695638,18.7800143290789,4.068406007056408,-7.651098143729599,-15.60424825209424
7.220829595962472,2.3537391059573873,-15.880645914863413,-12.704144646527146,-14.887341894364305,-18.953547213976208,7.729348017814079,5.033670145267313,9.991246052838664,-9.493063456800165,-12.642556890792493,-6.865847564773172,-2.025587498154569,-34.95038755274413,15.005883925766689,0.8922201798540836,-8.18811550570511,-13.475398142533944
9.639185010065951,8.292176608320634,-15.183918769113763,-15.74044769717861,-6.383013213012214,-8.01750525796781,-1.3543739305050497,-0.6037013631201218,11.049114282491743,-9.152264918301437,-8.228390374955344,-6.66146383719585,4.886268545825501,-19.645535142741426,4.396170377608589,-5.995497545316301,-5.309201818558845,-13.20286068347264
11.666609052828985,-8.424700931676313,8.65585289688201,-12.819974192789884,3.9737340378114716,6.1421449634025365,-8.874646479439985,-8.389364923309255,8.592364034197612,-2.074039944079148,-7.330339911469666,-0.11019735345775805,12.286767640359093,-2.87712778956796,-2.1114983846629,-14.446273867681583,-0.4792122064560447,-9.415478611417269
12.228884925231265,3.08281405298468,-2.9559973244818005,-4.040402907504622,10.714077211865346,14.54090426005164,-19.22609615691127,-14.221694048631042,7.796887778121553,1.0969470366282508,-6.628070790662037,6.0495347220893185,13.339907332023968,9.495362535468587,-12.32978045112019,-18.698298150015518,2.1025824117908254,-10.121204125815275
12.888555138808945,16.83778711280229,-17.011174280221724,-6.394201035867297,22.138935377506666,13.663107036036202,-27.62352156848491,-16.63582083065655,5.537669362582188,2.3138813136659575,-6.2192686094456535,4.688684868668576,16.639607466890862,14.44453911263221,-20.692223368127376,-18.849223197011867,1.0689864939618836,-8.874642921849203
5.6377039983867165,7.742202914832044,-6.458503639624889,-5.0374118357483,23.01371257417698,15.032379820638585,-29.86766735774276,-15.436427568391183,-0.13841517848855922,3.920580350402096,-6.982880263138654,5.084706529020787,12.908420803064484,16.560309719465437,-24.171475722830372,-12.555257331035298,-1.7244891820647883,-6.359414735864779
6.882851172944512,3.726198460373435,-3.0367692946508575,-4.559968175204073,22.81122143296461,15.719003746048948,-29.278923706521685,-11.014142581044451,1.5110157263503803,-0.23536059716509072,-8.137670419090277,9.87432745331933,8.298822400704966,20.92087158068621,-23.939468669821135,-7.043066420139846,-4.81296392051563,-3.8450847328973485
6.565269088049624,14.262597288550486,-12.019506205612583,-2.4227871899888895,24.168233107572295,22.461376364230983,-31.619123803376247,-7.861218849853946,-4.162669451592665,2.834571950978715,-5.777355393183038,13.491025874748168,5.545265780839632,26.451985021494433,-19.703266951258342,-5.144717032519728,-1.555695936911051,-2.3082438240278553
11.032730853452662,11.811938837102684,-8.504006264578045,-2.7275116195056763,24.545658857184804,17.974091304953802,-29.75927860358813,-2.2666587603754222,-12.276554860342046,10.103023221447376,0.1956973202318053,13.590986125088227,2.987605532184994,24.364449611853427,-15.857506478446904,-1.0007358674333706,1.8948934389869656,4.989479604208231
9.83587862417551,-2.063231494462153,3.408091190128413,-3.8139767864509753,24.13882700327628,11.8276208978103,-24.773648667449912,-2.043077612707549,-14.822677593936092,7.897945868278734,0.4063201388491908,13.885173120153862,0.8211926902076883,21.494304050715144,-12.109251236056286,-1.0565238839541409,1.144223026041442,4.473648289201111
6.978700454996585,11.407230077787897,-18.178397230520677,-1.7758892198419312,20.408649492584473,10.369732223017053,-22.13109226961627,-8.55767943978012,-13.26587615486227,1.2975797288718187,-1.8251475784647215,12.225088086833082,-4.860247399892703,23.21272163779583,-10.607008274042213,-7.6558559576722685,1.758801945323201,4.152186630914426
0.7033781036588618,5.054655400027402,-10.274240616850317,-2.9610173714813257,14.234059541775144,8.619894697057589,-21.53866040558195,-8.236033620255935,-9.754593828169314,-4.717492047411769,-1.4205264101147916,8.415387801007645,-8.587846931952617,21.02347727717185,-8.61639716255164,-10.739972969688994,1.5901786369419613,2.950850307809008
0.28741834847322467,5.14899628168004,-12.62614929080177,-8.052979952660138,11.865166460994581,3.550732751701359,-14.402495534583995,-13.383010262663031,-5.46069708833655,-9.463625848765759,-2.0908327899019614,1.772441113653869,-7.8224708843723025,15.414858676007256,-9.555474595811512,-10.406519780390532,-0.5335202853833882,-1.3764967516154232
-0.81222553487844,-3.8373088727241065,-10.097182219029682,-8.555567269221987,10.66522561859845,1.217040886548793,-12.148576211318687,-14.330487544953128,-5.560020338148355,-12.550150278561558,-2.859510851234597,-2.332602427950404,-6.861026614535648,8.535335845074721,-3.267870854664013,-13.003235627015382,0.9542166163659616,-5.4118405380940775
-0.4470609828599015,-11.161890189981946,-5.71473663644536,-9.546994654981603,5.946680279317927,1.130545270862373,-7.647909726774868,-16.25431975653504,-5.853255503569532,-14.172339399930426,-0.9921646150185341,-5.852922945789997,-7.168347575303827,2.1427485708969964,0.8712363137881759,-12.670641242526447,-2.345155322217758,-3.7840110655386785
-1.2538242674352582,-9.012110632570716,-6.998464428864098,-12.296824709500786,1.4205398302779368,-0.2244175863664859,-2.2677261257901073,-17.10368803922247,-6.145062428289032,-14.33015084063572,-0.19980814546465586,-8.886202624020111,-5.717011724484729,-3.6652441878518394,4.131363425026984,-12.92439943380678,-3.8885458040836185,-8.895545857979286
-4.111411891023135,-13.501480131995947,-1.4481793622903822,-15.53551790424452,-2.424891262342234,-6.265853126396344,-3.5276924453473733,-11.409752268064626,-5.361181863646763,-10.875071018770944,-2.4356153629696933,-15.924721044204238,-10.2219489799065,-4.298726651488581,2.215536419218125,-11.323049889988635,-4.457194339736322,-11.078331952583289
-8.043222830855317,0.7610302991761573,-17.87291789590953,-18.091191552957575,-3.929415112621406,-11.720227582876793,-8.302781414051774,-9.426568137267573,-8.67745049692444,-8.59228500695699,-5.258161045252052,-20.718405431449444,-7.987622110095035,-7.960946203120197,-4.095015638594221,-13.335408295022905,-5.320628455296893,-16.09417809394099
-8.849950162060342,-15.639379945104697,-2.365609212999084,-21.721694265092506,-5.0461696468225785,-24.400144007739012,-8.194447164351928,-6.173583558022319,-5.742124899859583,-12.26697701653737,-8.569804882210049,-21.997726786685305,-5.45941148711546,-21.390283307961997,-5.03455092763414,-11.930098654238888,-11.752342356027981,-17.204701037191004
-11.805087261733538,-8.209676619246068,-11.567742964599077,-20.469912263434452,-4.310271278771413,-25.06701105064993,-9.550461966771518,-4.8734963163408,-5.246721538680463,-15.941979018915216,-13.151825359813019,-17.711893191639128,0.683075996244213,-28.961495104567415,-5.583645699799503,-9.939175804425513,-12.814644737223023,-17.534948025203242
-9.877251745507472,-2.7314885387196077,-17.549204482825733,-16.289007802983974,-3.6748566856552625,-28.467130525306356,-6.023091258113535,-3.8661169210239366,-3.5778821918404455,-16.003907963268134,-11.484592174262412,-15.380570240699493,4.189774379231375,-30.967549522832865,-3.496202723545567,-11.757217522966581,-10.948954067494453,-14.545816095039106
-6.582096649515372,-5.064266210248241,-14.450527025385743,-13.378270243769704,-7.632163113765834,-23.17452946775232,-3.6671328660603937,-3.0537794809377674,1.217569206512085,-15.773079604931903,-9.81821549243568,-15.101434238096259,4.377108354027884,-25.748258826337175,-2.971534879313582,-13.184919576908058,-8.010741772220722,-12.729558288039502
-6.70482510877386,-7.10240399459172,-7.838198115828936,-12.616624867887843,-4.951530940529054,-23.74019335962181,-4.631074416553256,-0.48332082940905163,4.0614508542896814,-14.175210694273778,-8.836313395728917,-15.311978851401037,4.174838462236169,-24.631913846789022,-1.3729124775956827,-11.976131683979357,-7.710975762675174,-12.574459009667736
-14.6400087684101,-3.4747136859488066,-1.911495603555462,-8.925873904351327,-4.031505573862559,-19.519410289982115,-5.496911763398881,0.6225621556844665,-1.5892857357467598,-13.65169597625754,-1.4098838505409539,-12.301226399751112,9.247141433416315,-21.66138454014822,-6.122352280750092,-9.888670084091965,-5.26440000921526,-10.564834028289644
-16.129590373210334,-16.05651730366582,17.294643619356382,-4.356833719382134,-6.434589844810687,-12.75828960939233,-1.3817740872068187,1.0451400943377909,-4.894611894384566,-8.831310385956947,2.695287040887165,-8.217662537477215,9.33998181929583,-14.199903160859428,-5.79392640042206,-8.875665705101445,-1.549906891244544,-6.50536098728479
-17.033006600438192,-11.546514433272609,15.111729341093694,-6.233837767978144,-2.199672452310109,-15.371056510018898,-2.9303706936361964,0.8820795468956506,-7.514690283604171,-5.866441650730395,4.9440542033668,-11.264551729656137,9.531588840230947,-7.8139512788943835,-8.688569631713886,-12.648088038707526,4.995055202994482,-7.9156777155634295
-14.420496979162936,6.832599763149084,-2.1124765441985662,-11.236524967460497,-2.0690821815234886,-14.271554285179736,-0.27928491708383696,-3.9682356618041954,-0.9532791898149466,-7.784429326710195,3.3832525702984064,-15.582442781473839,9.626673219591815,-2.4058606944058143,-10.704682927895831,-17.104286642897,7.241499468363969,-11.573069347803195
